Time [s];T_cat [gradC];n_h2 [mol/s];n_ch4 [mol/s];n_h2_res [mol/s];m_DE [kg/h];Pel [W]
0;400;0.00701;0.00170;0.000074;0;210
2;401;0.00701;0.00170;0.000074;0;210
4;401;0.00701;0.00171;0.000073;0;210
6;401;0.00704;0.00171;0.000073;0;210
8;402;0.00711;0.00173;0.000073;0;210
10;402;0.00717;0.00174;0.000074;0.00184;210
12;403;0.00723;0.00176;0.000076;0;210
14;403;0.0073;0.00177;0.000077;0;217
16;403;0.00736;0.00179;0.000075;0;224
18;403;0.00741;0.00180;0.000076;0;357
20;403;0.00748;0.00182;0.00008;0;357
22;403;0.00754;0.00183;0.00008;0;350
24;403;0.0076;0.00185;0.00008;0;357
26;403;0.00766;0.00186;0.000079;0.0057;336
28;403;0.00772;0.00188;0.000081;0.00913;217
30;404;0.00778;0.00189;0.000081;0.00463;217
32;404;0.00785;0.00191;0.000082;0;210
34;404;0.00791;0.00192;0.00008;0;217
36;404;0.00797;0.00194;0.00008;0;217
38;404;0.00803;0.00195;0.000081;0;217
40;404;0.00808;0.00197;0.00008;0;217
42;404;0.00816;0.00198;0.000081;0.0099;210
44;405;0.00822;0.00200;0.000082;0.0172;217
46;405;0.00828;0.00201;0.000082;0.0224;280
48;406;0.00833;0.00203;0.000083;0.0187;350
50;406;0.0084;0.00204;0.000083;0.0142;357
52;406;0.00846;0.00206;0.000084;0.0102;350
54;406;0.00852;0.00207;0.000085;0.00102;357
56;406;0.00858;0.00209;0.000085;0;287
58;406;0.00865;0.00210;0.000086;0;210
60;407;0.00871;0.00212;0.000087;0.0143;217
62;407;0.00876;0.00213;0.000087;0.019;210
64;408;0.00883;0.00215;0.000088;0.0267;210
66;408;0.00889;0.00216;0.000088;0.0227;217
68;408;0.00895;0.00218;0.000089;0.019;210
70;409;0.00901;0.00219;0.00009;0.0143;210
72;409;0.00907;0.00221;0.00009;0.00807;336
74;409;0.00913;0.00222;0.000091;0.000351;350
76;410;0.0092;0.00224;0.000091;0.0184;350
78;410;0.00926;0.00225;0.000092;0.0275;350
80;410;0.00932;0.00227;0.000093;0.0318;350
82;411;0.00938;0.00228;0.000093;0.0343;224
84;411;0.00944;0.00230;0.000094;0.0309;210
86;411;0.0095;0.00231;0.000094;0.0261;210
88;412;0.00956;0.00232;0.000095;0.0278;210
90;412;0.00962;0.00234;0.000096;0.0223;210
92;412;0.00969;0.00236;0.000096;0.0176;210
94;413;0.00975;0.00237;0.000097;0.0323;210
96;413;0.00981;0.00239;0.000098;0.038;203
98;414;0.00987;0.00240;0.000098;0.0415;210
100;414;0.00993;0.00242;0.000099;0.0426;287
102;414;0.01;0.00243;0.000099;0.0397;343
104;415;0.0101;0.00245;0.0001;0.0399;350
106;415;0.0101;0.00246;0.000101;0.0363;343
108;415;0.0102;0.00248;0.000101;0.034;350
110;416;0.0102;0.00249;0.000102;0.0423;259
112;416;0.0103;0.00250;0.000102;0.0513;210
114;416;0.0104;0.00252;0.000103;0.0601;203
116;417;0.0104;0.00253;0.000104;0.0576;203
118;418;0.0105;0.00255;0.000104;0.062;210
120;418;0.0105;0.00256;0.000105;0.0562;203
122;418;0.0106;0.00258;0.000105;0.0529;210
124;418;0.0107;0.00259;0.000106;0.0533;203
126;419;0.0107;0.00261;0.000107;0.0534;203
128;419;0.0108;0.00263;0.000107;0.0658;210
130;420;0.0109;0.00264;0.000108;0.0766;273
132;420;0.0109;0.00265;0.000108;0.0788;350
134;420;0.011;0.00267;0.000109;0.0734;343
136;421;0.011;0.00268;0.00011;0.0749;343
138;421;0.0111;0.00270;0.00011;0.0737;350
140;422;0.0112;0.00271;0.000111;0.0715;266
142;422;0.0112;0.00273;0.000112;0.0702;210
144;422;0.0113;0.00274;0.000112;0.0756;210
146;423;0.0113;0.00276;0.000113;0.0855;210
148;423;0.0114;0.00277;0.000113;0.0973;210
150;423;0.0115;0.00279;0.000114;0.0984;203
152;424;0.0115;0.00280;0.000115;0.0932;210
154;424;0.0116;0.00282;0.000115;0.0948;203
156;425;0.0117;0.00283;0.000116;0.0928;203
158;425;0.0117;0.00285;0.000116;0.0895;210
160;425;0.0118;0.00286;0.000117;0.0982;329
162;426;0.0118;0.00288;0.000118;0.109;350
164;426;0.0119;0.00289;0.000118;0.107;343
166;426;0.012;0.00291;0.000119;0.108;350
168;427;0.012;0.00292;0.000119;0.112;350
170;427;0.0121;0.00294;0.00012;0.109;224
172;428;0.0121;0.00295;0.000121;0.112;210
174;428;0.0122;0.00297;0.000121;0.118;210
176;428;0.0123;0.00298;0.000122;0.125;210
178;429;0.0123;0.00300;0.000122;0.133;210
180;429;0.0124;0.00301;0.000123;0.133;210
182;429;0.0125;0.00303;0.000124;0.133;210
184;430;0.0125;0.00304;0.000124;0.133;210
186;430;0.0126;0.00306;0.000125;0.129;210
188;431;0.0126;0.00307;0.000126;0.133;252
190;431;0.0127;0.00309;0.000126;0.144;357
192;431;0.0128;0.00310;0.000127;0.148;350
194;432;0.0128;0.00312;0.000127;0.149;357
196;432;0.0129;0.00313;0.000128;0.151;357
198;433;0.0129;0.00314;0.000129;0.152;308
200;433;0.013;0.00316;0.000129;0.151;217
202;433;0.0131;0.00318;0.00013;0.159;210
204;433;0.0131;0.00319;0.00013;0.163;217
206;434;0.0132;0.00320;0.000131;0.165;217
208;434;0.0132;0.00322;0.000132;0.171;210
210;434;0.0133;0.00324;0.000132;0.174;217
212;435;0.0134;0.00325;0.000133;0.175;224
214;435;0.0134;0.00326;0.000133;0.176;217
216;436;0.0135;0.00328;0.000134;0.178;364
218;436;0.0136;0.00329;0.000135;0.178;350
220;436;0.0136;0.00331;0.000135;0.184;357
222;437;0.0137;0.00332;0.000136;0.195;364
224;437;0.0137;0.00334;0.000136;0.199;336
226;437;0.0138;0.00335;0.000137;0.201;224
228;438;0.0139;0.00337;0.000138;0.203;231
230;438;0.0139;0.00338;0.000138;0.2;210
232;438;0.014;0.00340;0.000139;0.199;231
234;439;0.014;0.00341;0.000139;0.205;224
236;439;0.0141;0.00343;0.00014;0.213;224
238;439;0.0142;0.00344;0.000141;0.221;231
240;440;0.0142;0.00346;0.000141;0.22;224
242;440;0.0143;0.00347;0.000142;0.219;280
244;440;0.0144;0.00349;0.000143;0.22;371
246;441;0.0144;0.00350;0.000143;0.226;350
248;441;0.0145;0.00352;0.000144;0.233;378
250;441;0.0145;0.00353;0.000144;0.239;413
252;442;0.0146;0.00355;0.000145;0.241;371
254;442;0.0147;0.00356;0.000146;0.24;315
256;442;0.0147;0.00358;0.000146;0.24;350
258;443;0.0148;0.00359;0.000147;0.245;350
260;443;0.0148;0.00361;0.000147;0.252;350
262;443;0.0149;0.00362;0.000148;0.259;350
264;443;0.015;0.00364;0.000149;0.261;350
266;444;0.015;0.00365;0.000149;0.258;350
268;444;0.0151;0.00367;0.00015;0.257;308
270;444;0.0152;0.00368;0.00015;0.269;280
272;445;0.0152;0.00370;0.000151;0.273;287
274;445;0.0153;0.00371;0.000152;0.273;371
276;445;0.0153;0.00372;0.000152;0.272;350
278;446;0.0154;0.00374;0.000153;0.273;371
280;446;0.0155;0.00375;0.000153;0.282;357
282;446;0.0155;0.00377;0.000154;0.29;343
284;446;0.0156;0.00378;0.000155;0.29;224
286;447;0.0156;0.00380;0.000155;0.291;210
288;447;0.0157;0.00381;0.000156;0.297;224
290;447;0.0158;0.00383;0.000157;0.294;217
292;448;0.0158;0.00384;0.000157;0.295;280
294;448;0.0159;0.00386;0.000158;0.301;357
296;448;0.016;0.00387;0.000158;0.309;350
298;448;0.016;0.00389;0.000159;0.313;350
300;449;0.0161;0.00390;0.00016;0.317;350
302;449;0.0161;0.00392;0.00016;0.317;280
304;449;0.0162;0.00393;0.000161;0.318;210
306;450;0.0163;0.00395;0.000161;0.322;210
308;450;0.0163;0.00396;0.000162;0.326;210
310;450;0.0164;0.00398;0.000163;0.333;217
312;450;0.0164;0.00399;0.000163;0.341;210
314;450;0.0165;0.00401;0.000164;0.338;217
316;451;0.0166;0.00402;0.000164;0.338;217
318;451;0.0166;0.00404;0.000165;0.339;210
320;451;0.0167;0.00405;0.000166;0.341;217
322;451;0.0167;0.00407;0.000166;0.347;322
324;451;0.0168;0.00408;0.000167;0.36;357
326;452;0.0169;0.00410;0.000167;0.359;371
328;452;0.0169;0.00411;0.000168;0.361;350
330;452;0.017;0.00413;0.000169;0.362;371
332;453;0.0171;0.00414;0.000169;0.363;245
334;453;0.0171;0.00416;0.00017;0.371;210
336;453;0.0172;0.00417;0.000171;0.373;231
338;453;0.0172;0.00419;0.000171;0.371;231
340;453;0.0173;0.00420;0.000172;0.368;238
342;454;0.0174;0.00422;0.000172;0.38;280
344;454;0.0174;0.00423;0.000173;0.381;301
346;454;0.0175;0.00424;0.000174;0.386;315
348;454;0.0175;0.00426;0.000174;0.387;448
350;454;0.0176;0.00427;0.000175;0.385;490
352;454;0.0177;0.00429;0.000175;0.391;490
354;455;0.0177;0.00430;0.000176;0.397;490
356;455;0.0178;0.00432;0.000177;0.399;490
358;455;0.0179;0.00433;0.000177;0.401;392
360;455;0.0179;0.00435;0.000178;0.402;350
362;455;0.018;0.00436;0.000178;0.4;350
364;455;0.018;0.00438;0.000179;0.408;350
366;455;0.0181;0.00439;0.00018;0.411;350
368;455;0.0182;0.00441;0.00018;0.412;350
370;455;0.0182;0.00442;0.000181;0.413;350
372;456;0.0183;0.00444;0.000181;0.412;350
374;456;0.0183;0.00445;0.000182;0.413;434
376;456;0.0184;0.00447;0.000183;0.421;469
378;456;0.0185;0.00448;0.000183;0.424;455
380;456;0.0185;0.00450;0.000184;0.424;413
382;456;0.0186;0.00451;0.000184;0.428;399
384;456;0.0187;0.00453;0.000185;0.429;273
386;456;0.0187;0.00454;0.000186;0.426;217
388;456;0.0188;0.00456;0.000186;0.428;224
390;456;0.0188;0.00457;0.000187;0.427;231
392;456;0.0189;0.00459;0.000187;0.427;210
394;456;0.019;0.00460;0.000188;0.428;231
396;456;0.019;0.00462;0.000189;0.436;224
398;456;0.0191;0.00463;0.000189;0.435;210
400;456;0.0191;0.00465;0.00019;0.438;308
402;455;0.0192;0.00466;0.000191;0.442;357
404;455;0.0193;0.00468;0.000191;0.437;357
406;455;0.0193;0.00469;0.000192;0.438;364
408;455;0.0194;0.00471;0.000192;0.435;350
410;455;0.0194;0.00472;0.000193;0.433;280
412;455;0.0195;0.00473;0.000194;0.435;231
414;455;0.0196;0.00475;0.000194;0.436;231
416;455;0.0196;0.00477;0.000195;0.435;259
418;455;0.0197;0.00478;0.000195;0.438;301
420;455;0.0198;0.00479;0.000196;0.439;301
422;454;0.0198;0.00481;0.000197;0.437;336
424;454;0.0199;0.00482;0.000197;0.438;420
426;454;0.0199;0.00484;0.000198;0.437;490
428;454;0.02;0.00485;0.000198;0.433;490
430;453;0.0201;0.00487;0.000199;0.435;490
432;453;0.0201;0.00488;0.0002;0.433;490
434;453;0.0202;0.00490;0.0002;0.431;420
436;453;0.0202;0.00491;0.000201;0.432;350
438;452;0.0203;0.00493;0.000201;0.428;350
440;452;0.0204;0.00494;0.000202;0.423;350
442;453;0.0204;0.00496;0.000203;0.428;350
444;453;0.0205;0.00497;0.000203;0.431;350
446;453;0.0206;0.00499;0.000204;0.44;350
448;454;0.0206;0.00500;0.000204;0.45;350
450;454;0.0207;0.00502;0.000205;0.455;434
452;455;0.0207;0.00503;0.000206;0.458;490
454;455;0.0208;0.00505;0.000206;0.465;490
456;456;0.0209;0.00506;0.000207;0.468;490
458;456;0.0209;0.00508;0.000208;0.473;490
460;457;0.021;0.00509;0.000208;0.481;392
462;457;0.021;0.00511;0.000209;0.487;350
464;458;0.0211;0.00512;0.000209;0.492;350
466;458;0.0212;0.00514;0.00021;0.503;350
468;459;0.0212;0.00515;0.000211;0.505;350
470;459;0.0213;0.00517;0.000211;0.512;350
472;460;0.0214;0.00518;0.000212;0.52;350
474;460;0.0214;0.00520;0.000212;0.525;350
476;460;0.0215;0.00521;0.000213;0.529;490
478;461;0.0215;0.00522;0.000214;0.538;490
480;461;0.0216;0.00524;0.000214;0.54;490
482;462;0.0217;0.00525;0.000215;0.545;490
484;462;0.0217;0.00527;0.000215;0.554;490
486;463;0.0218;0.00529;0.000216;0.556;350
488;463;0.0218;0.00530;0.000217;0.563;350
490;463;0.0219;0.00531;0.000217;0.569;336
492;464;0.022;0.00533;0.000218;0.573;336
494;464;0.022;0.00534;0.000218;0.579;329
496;464;0.0221;0.00536;0.000219;0.584;294
498;465;0.0222;0.00537;0.00022;0.588;371
500;465;0.0222;0.00539;0.00022;0.594;406
502;465;0.0223;0.00540;0.000221;0.602;378
504;466;0.0223;0.00542;0.000221;0.605;350
506;466;0.0224;0.00543;0.000222;0.612;371
508;466;0.0225;0.00545;0.000223;0.616;259
510;467;0.0225;0.00546;0.000223;0.62;238
512;467;0.0226;0.00548;0.000224;0.627;273
514;467;0.0226;0.00549;0.000225;0.631;308
516;468;0.0227;0.00551;0.000225;0.635;315
518;468;0.0228;0.00552;0.000226;0.642;350
520;468;0.0228;0.00554;0.000226;0.648;350
522;469;0.0229;0.00555;0.000227;0.65;364
524;469;0.023;0.00557;0.000228;0.66;490
526;469;0.023;0.00558;0.000228;0.66;490
528;470;0.0231;0.00559;0.000229;0.666;490
530;470;0.0231;0.00561;0.000229;0.676;490
532;470;0.0232;0.00562;0.00023;0.679;476
534;470;0.0233;0.00564;0.000231;0.682;350
536;471;0.0233;0.00566;0.000231;0.69;350
538;471;0.0234;0.00567;0.000232;0.692;350
540;471;0.0234;0.00568;0.000232;0.697;350
542;471;0.0235;0.00570;0.000233;0.703;350
544;472;0.0236;0.00571;0.000234;0.706;350
546;472;0.0236;0.00573;0.000234;0.709;476
548;472;0.0237;0.00574;0.000235;0.716;490
550;472;0.0237;0.00576;0.000235;0.72;490
552;473;0.0238;0.00577;0.000236;0.726;490
554;473;0.0239;0.00579;0.000237;0.732;490
556;473;0.0239;0.00580;0.000237;0.735;350
558;473;0.024;0.00582;0.000238;0.742;350
560;474;0.0241;0.00583;0.000238;0.747;350
562;474;0.0241;0.00585;0.000239;0.747;350
564;474;0.0242;0.00586;0.00024;0.753;350
566;474;0.0242;0.00588;0.00024;0.757;350
568;474;0.0243;0.00589;0.000241;0.76;350
570;474;0.0244;0.00591;0.000241;0.766;350
572;475;0.0244;0.00592;0.000242;0.772;448
574;475;0.0245;0.00594;0.000243;0.774;490
576;475;0.0245;0.00595;0.000243;0.782;490
578;475;0.0246;0.00597;0.000244;0.786;490
580;475;0.0247;0.00598;0.000244;0.788;490
582;475;0.0247;0.00600;0.000245;0.794;378
584;475;0.0248;0.00601;0.000246;0.796;350
586;476;0.0248;0.00602;0.000246;0.799;350
588;476;0.0249;0.00604;0.000247;0.806;350
590;476;0.025;0.00605;0.000248;0.806;350
592;476;0.025;0.00607;0.000248;0.808;350
594;476;0.0251;0.00608;0.000249;0.814;448
596;476;0.0252;0.00610;0.000249;0.816;490
598;476;0.0252;0.00611;0.00025;0.819;490
600;476;0.0253;0.00613;0.000251;0.823;490
602;476;0.0253;0.00614;0.000251;0.825;490
604;476;0.0254;0.00616;0.000252;0.83;378
606;476;0.0255;0.00617;0.000252;0.831;350
608;476;0.0255;0.00619;0.000253;0.833;350
610;476;0.0256;0.00620;0.000254;0.838;350
612;476;0.0257;0.00622;0.000254;0.843;350
614;476;0.0257;0.00623;0.000255;0.843;350
616;476;0.0258;0.00625;0.000255;0.847;350
618;476;0.0258;0.00626;0.000256;0.85;476
620;476;0.0259;0.00628;0.000257;0.85;490
622;476;0.026;0.00629;0.000257;0.854;490
624;476;0.026;0.00631;0.000258;0.855;490
626;476;0.0261;0.00632;0.000258;0.858;490
628;476;0.0261;0.00634;0.000259;0.863;350
630;476;0.0262;0.00635;0.00026;0.862;350
632;476;0.0263;0.00637;0.00026;0.864;350
634;475;0.0263;0.00638;0.000261;0.871;350
636;475;0.0264;0.00640;0.000261;0.868;350
638;475;0.0264;0.00641;0.000262;0.87;350
640;475;0.0265;0.00642;0.000263;0.875;448
642;475;0.0266;0.00644;0.000263;0.873;490
644;475;0.0266;0.00645;0.000264;0.876;490
646;474;0.0267;0.00647;0.000264;0.877;490
648;474;0.0268;0.00649;0.000265;0.876;490
650;474;0.0268;0.00650;0.000266;0.878;378
652;474;0.0269;0.00651;0.000266;0.878;350
654;473;0.0269;0.00653;0.000267;0.876;350
656;473;0.027;0.00654;0.000267;0.881;350
658;473;0.0271;0.00656;0.000268;0.879;350
660;473;0.0271;0.00657;0.000269;0.877;350
662;473;0.0272;0.00659;0.000269;0.882;350
664;472;0.0272;0.00660;0.00027;0.881;392
666;472;0.0273;0.00662;0.000271;0.882;490
668;472;0.0274;0.00663;0.000271;0.885;490
670;472;0.0274;0.00665;0.000272;0.885;490
672;472;0.0275;0.00666;0.000272;0.886;490
674;471;0.0276;0.00668;0.000273;0.889;448
676;471;0.0276;0.00669;0.000274;0.886;350
678;471;0.0277;0.00671;0.000274;0.891;350
680;471;0.0277;0.00672;0.000275;0.888;350
682;471;0.0278;0.00674;0.000275;0.885;350
684;470;0.0279;0.00675;0.000276;0.889;350
686;470;0.0279;0.00676;0.000277;0.89;350
688;470;0.028;0.00678;0.000277;0.889;490
690;470;0.028;0.00680;0.000278;0.895;490
692;470;0.0281;0.00681;0.000278;0.894;490
694;469;0.0282;0.00683;0.000279;0.896;490
696;469;0.0282;0.00684;0.00028;0.897;490
698;469;0.0283;0.00685;0.00028;0.896;350
700;469;0.0284;0.00687;0.000281;0.899;350
702;469;0.0284;0.00688;0.000281;0.901;350
704;468;0.0285;0.00690;0.000282;0.897;350
706;468;0.0285;0.00691;0.000283;0.897;350
708;468;0.0286;0.00693;0.000283;0.899;350
710;468;0.0287;0.00694;0.000284;0.897;378
712;468;0.0287;0.00696;0.000284;0.901;490
714;467;0.0288;0.00697;0.000285;0.905;490
716;467;0.0288;0.00699;0.000286;0.901;490
718;467;0.0289;0.00700;0.000286;0.904;490
720;467;0.029;0.00702;0.000287;0.903;462
722;467;0.029;0.00703;0.000287;0.901;350
724;466;0.0291;0.00705;0.000288;0.905;350
726;466;0.0291;0.00706;0.000289;0.903;350
728;466;0.0292;0.00708;0.000289;0.905;350
730;466;0.0293;0.00709;0.00029;0.908;350
732;466;0.0293;0.00710;0.00029;0.905;364
734;465;0.0294;0.00712;0.000291;0.908;490
736;465;0.0295;0.00714;0.000292;0.907;490
738;465;0.0295;0.00715;0.000292;0.908;490
740;465;0.0296;0.00717;0.000293;0.913;490
742;465;0.0296;0.00718;0.000293;0.912;462
744;465;0.0297;0.00719;0.000294;0.914;350
746;465;0.0298;0.00721;0.000295;0.924;350
748;465;0.0298;0.00722;0.000295;0.92;350
750;465;0.0299;0.00724;0.000296;0.919;350
752;465;0.0299;0.00725;0.000296;0.923;350
754;464;0.03;0.00727;0.000297;0.924;350
756;464;0.0301;0.00728;0.000298;0.924;434
758;464;0.0301;0.00730;0.000298;0.934;490
760;464;0.0302;0.00731;0.000299;0.929;490
762;464;0.0303;0.00733;0.0003;0.929;490
764;464;0.0303;0.00734;0.0003;0.929;490
766;463;0.0304;0.00736;0.000301;0.925;406
768;463;0.0304;0.00737;0.000301;0.931;350
770;463;0.0305;0.00739;0.000302;0.926;350
772;463;0.0306;0.00740;0.000303;0.927;350
774;463;0.0306;0.00742;0.000303;0.928;350
776;463;0.0307;0.00743;0.000304;0.926;350
778;462;0.0307;0.00745;0.000304;0.928;350
780;462;0.0308;0.00746;0.000305;0.932;448
782;462;0.0309;0.00748;0.000306;0.932;490
784;462;0.0309;0.00749;0.000306;0.936;490
786;462;0.031;0.00750;0.000307;0.937;490
788;462;0.0311;0.00752;0.000307;0.934;490
790;462;0.0311;0.00753;0.000308;0.941;392
792;462;0.0312;0.00755;0.000309;0.94;350
794;462;0.0312;0.00756;0.000309;0.938;350
796;462;0.0313;0.00758;0.00031;0.947;350
798;462;0.0314;0.00759;0.00031;0.945;350
800;462;0.0314;0.00761;0.000311;0.95;350
802;462;0.0315;0.00762;0.000312;0.952;378
804;462;0.0315;0.00764;0.000312;0.952;490
806;462;0.0316;0.00765;0.000313;0.958;490
808;462;0.0317;0.00767;0.000313;0.959;490
810;462;0.0317;0.00768;0.000314;0.959;490
812;462;0.0318;0.00770;0.000315;0.964;462
814;462;0.0318;0.00771;0.000315;0.964;350
816;462;0.0319;0.00773;0.000316;0.966;350
818;462;0.032;0.00774;0.000316;0.972;350
820;462;0.032;0.00775;0.000317;0.97;350
822;462;0.0321;0.00777;0.000318;0.976;350
824;462;0.0322;0.00779;0.000318;0.977;350
826;462;0.0322;0.00780;0.000319;0.979;462
828;462;0.0323;0.00782;0.000319;0.986;490
830;462;0.0323;0.00783;0.00032;0.985;490
832;462;0.0324;0.00784;0.000321;0.988;490
834;462;0.0325;0.00786;0.000321;0.996;490
836;462;0.0325;0.00787;0.000322;0.996;378
838;462;0.0326;0.00789;0.000322;0.997;350
840;462;0.0326;0.00790;0.000323;1;350
842;462;0.0327;0.00792;0.000324;1;350
844;462;0.0328;0.00793;0.000324;1.01;350
846;462;0.0328;0.00795;0.000325;1.01;350
848;462;0.0329;0.00796;0.000326;1.01;364
850;462;0.033;0.00798;0.000326;1.02;490
852;462;0.033;0.00799;0.000327;1.02;490
854;462;0.0331;0.00801;0.000327;1.02;490
856;462;0.0331;0.00802;0.000328;1.03;490
858;462;0.0332;0.00804;0.000329;1.02;476
860;463;0.0333;0.00805;0.000329;1.03;350
862;463;0.0333;0.00807;0.00033;1.03;350
864;463;0.0334;0.00808;0.00033;1.03;350
866;463;0.0334;0.00810;0.000331;1.04;350
868;463;0.0335;0.00811;0.000332;1.04;350
870;463;0.0336;0.00812;0.000332;1.04;350
872;463;0.0336;0.00814;0.000333;1.05;364
874;463;0.0337;0.00815;0.000333;1.05;490
876;463;0.0338;0.00817;0.000334;1.06;490
878;463;0.0338;0.00818;0.000335;1.06;490
880;463;0.0339;0.00820;0.000335;1.06;490
882;463;0.0339;0.00821;0.000336;1.06;476
884;463;0.034;0.00823;0.000336;1.06;350
886;463;0.0341;0.00824;0.000337;1.06;350
888;463;0.0341;0.00826;0.000338;1.06;350
890;462;0.0342;0.00827;0.000338;1.06;350
892;462;0.0342;0.00829;0.000339;1.06;350
894;462;0.0343;0.00830;0.000339;1.06;350
896;461;0.0344;0.00832;0.00034;1.06;378
898;461;0.0344;0.00833;0.000341;1.07;490
900;461;0.0345;0.00835;0.000341;1.07;490
902;461;0.0345;0.00836;0.000342;1.06;490
904;460;0.0346;0.00838;0.000342;1.07;490
906;460;0.0347;0.00839;0.000343;1.06;448
908;460;0.0347;0.00840;0.000344;1.06;350
910;460;0.0348;0.00842;0.000344;1.07;350
912;460;0.0349;0.00843;0.000345;1.06;350
914;460;0.0349;0.00845;0.000345;1.07;350
916;460;0.035;0.00846;0.000346;1.07;350
918;459;0.035;0.00848;0.000347;1.07;350
920;459;0.0351;0.00849;0.000347;1.07;350
922;459;0.0352;0.00851;0.000348;1.07;490
924;459;0.0352;0.00852;0.000348;1.08;490
926;459;0.0353;0.00854;0.000349;1.08;490
928;459;0.0354;0.00855;0.00035;1.08;490
930;459;0.0354;0.00857;0.00035;1.09;476
932;459;0.0355;0.00858;0.000351;1.08;350
934;459;0.0355;0.00860;0.000351;1.08;350
936;459;0.0356;0.00861;0.000352;1.09;350
938;459;0.0357;0.00863;0.000353;1.09;350
940;459;0.0357;0.00864;0.000353;1.09;350
942;459;0.0358;0.00866;0.000354;1.1;350
944;459;0.0358;0.00867;0.000354;1.1;350
946;459;0.0359;0.00869;0.000355;1.1;350
948;459;0.036;0.00870;0.000356;1.11;462
950;460;0.036;0.00872;0.000356;1.11;490
952;460;0.0361;0.00873;0.000357;1.11;490
954;460;0.0361;0.00874;0.000357;1.12;490
956;460;0.0362;0.00876;0.000358;1.12;490
958;461;0.0363;0.00877;0.000359;1.13;364
960;461;0.0363;0.00879;0.000359;1.13;350
962;461;0.0364;0.00880;0.00036;1.14;350
964;461;0.0365;0.00882;0.00036;1.14;350
966;462;0.0365;0.00883;0.000361;1.15;350
968;462;0.0366;0.00885;0.000362;1.16;350
970;462;0.0366;0.00886;0.000362;1.16;350
972;463;0.0367;0.00888;0.000363;1.17;350
974;463;0.0368;0.00889;0.000363;1.17;350
976;463;0.0368;0.00891;0.000364;1.17;350
978;463;0.0369;0.00892;0.000365;1.18;462
980;464;0.0369;0.00894;0.000365;1.19;490
982;464;0.037;0.00895;0.000366;1.19;490
984;464;0.0371;0.00896;0.000366;1.2;490
986;464;0.0371;0.00898;0.000367;1.2;490
988;465;0.0372;0.00900;0.000368;1.21;378
990;465;0.0373;0.00901;0.000368;1.21;350
992;465;0.0373;0.00902;0.000369;1.21;350
994;465;0.0374;0.00904;0.000369;1.22;350
996;465;0.0374;0.00905;0.00037;1.22;350
998;466;0.0375;0.00907;0.000371;1.23;350
1000;466;0.0376;0.00908;0.000371;1.24;350
1002;466;0.0376;0.00910;0.000372;1.24;350
1004;466;0.0377;0.00911;0.000372;1.25;350
1006;466;0.0377;0.00913;0.000373;1.25;350
1008;466;0.0378;0.00914;0.000374;1.25;406
1010;467;0.0379;0.00916;0.000374;1.26;490
1012;467;0.0379;0.00917;0.000375;1.26;490
1014;467;0.038;0.00919;0.000375;1.27;490
1016;467;0.038;0.00920;0.000376;1.27;490
1018;467;0.0381;0.00922;0.000377;1.27;420
1020;467;0.0382;0.00923;0.000377;1.28;350
1022;467;0.0382;0.00925;0.000378;1.28;350
1024;467;0.0383;0.00926;0.000379;1.28;350
1026;467;0.0384;0.00928;0.000379;1.29;350
1028;467;0.0384;0.00929;0.00038;1.29;350
1030;467;0.0385;0.00930;0.00038;1.29;350
1032;467;0.0385;0.00932;0.000381;1.3;350
1034;467;0.0386;0.00933;0.000382;1.3;350
1036;467;0.0387;0.00935;0.000382;1.3;350
1038;467;0.0387;0.00936;0.000383;1.3;350
1040;467;0.0388;0.00938;0.000383;1.31;350
1042;467;0.0388;0.00939;0.000384;1.31;406
1044;467;0.0389;0.00941;0.000385;1.31;490
1046;467;0.039;0.00942;0.000385;1.32;490
1048;467;0.039;0.00944;0.000386;1.32;490
1050;467;0.0391;0.00945;0.000386;1.32;490
1052;467;0.0392;0.00947;0.000387;1.32;420
1054;467;0.0392;0.00948;0.000388;1.32;350
1056;467;0.0393;0.00950;0.000388;1.33;350
1058;467;0.0393;0.00951;0.000389;1.33;350
1060;467;0.0394;0.00953;0.000389;1.33;350
1062;467;0.0395;0.00954;0.00039;1.34;350
1064;467;0.0395;0.00955;0.000391;1.34;350
1066;467;0.0396;0.00957;0.000391;1.34;350
1068;467;0.0396;0.00958;0.000392;1.35;350
1070;467;0.0397;0.00960;0.000392;1.35;350
1072;466;0.0398;0.00962;0.000393;1.35;350
1074;466;0.0398;0.00963;0.000394;1.35;350
1076;466;0.0399;0.00964;0.000394;1.35;350
1078;466;0.04;0.00966;0.000395;1.36;350
1080;466;0.04;0.00967;0.000395;1.36;350
1082;466;0.0401;0.00969;0.000396;1.36;350
1084;466;0.0401;0.00970;0.000397;1.36;350
1086;466;0.0402;0.00972;0.000397;1.36;406
1088;466;0.0403;0.00973;0.000398;1.37;490
1090;466;0.0403;0.00975;0.000398;1.37;490
1092;466;0.0404;0.00976;0.000399;1.37;490
1094;465;0.0404;0.00978;0.0004;1.37;490
1096;465;0.0405;0.00979;0.0004;1.37;420
1098;465;0.0406;0.00981;0.000401;1.38;350
1100;465;0.0406;0.00982;0.000401;1.38;350
1102;465;0.0407;0.00983;0.000402;1.38;350
1104;465;0.0408;0.00985;0.000403;1.38;350
1106;464;0.0408;0.00986;0.000403;1.38;350
1108;464;0.0409;0.00988;0.000404;1.38;350
1110;464;0.0409;0.00989;0.000404;1.38;350
1112;464;0.041;0.00991;0.000405;1.38;350
1114;463;0.0411;0.00992;0.000406;1.38;350
1116;463;0.0411;0.00994;0.000406;1.38;350
1118;463;0.0412;0.00995;0.000407;1.38;350
1120;463;0.0412;0.00997;0.000407;1.38;350
1122;462;0.0413;0.00998;0.000408;1.38;350
1124;462;0.0414;0.01000;0.000409;1.39;350
1126;462;0.0414;0.01000;0.000409;1.39;350
1128;462;0.0415;0.01000;0.00041;1.39;350
1130;461;0.0415;0.01000;0.00041;1.39;350
1132;461;0.0416;0.01010;0.000411;1.39;350
1134;461;0.0417;0.01010;0.000412;1.39;350
1136;461;0.0417;0.01010;0.000412;1.39;350
1138;461;0.0418;0.01010;0.000413;1.39;350
1140;461;0.0419;0.01010;0.000413;1.4;350
1142;460;0.0419;0.01010;0.000414;1.39;350
1144;460;0.042;0.01010;0.000415;1.4;350
1146;460;0.042;0.01020;0.000415;1.4;350
1148;460;0.0421;0.01020;0.000416;1.4;392
1150;460;0.0422;0.01020;0.000416;1.4;490
1152;460;0.0422;0.01020;0.000417;1.4;490
1154;460;0.0423;0.01020;0.000418;1.4;490
1156;460;0.0423;0.01020;0.000418;1.4;490
1158;459;0.0424;0.01020;0.000419;1.41;448
1160;459;0.0425;0.01030;0.000419;1.41;350
1162;459;0.0425;0.01030;0.00042;1.41;350
1164;459;0.0426;0.01030;0.000421;1.41;350
1166;459;0.0427;0.01030;0.000421;1.41;350
1168;459;0.0427;0.01030;0.000422;1.41;350
1170;459;0.0428;0.01030;0.000422;1.42;350
1172;459;0.0428;0.01030;0.000423;1.42;350
1174;459;0.0429;0.01040;0.000424;1.42;350
1176;459;0.043;0.01040;0.000424;1.43;350
1178;459;0.043;0.01040;0.000425;1.43;350
1180;459;0.0431;0.01040;0.000425;1.43;350
1182;458;0.0431;0.01040;0.000426;1.43;350
1184;458;0.0432;0.01040;0.000427;1.43;350
1186;458;0.0433;0.01050;0.000427;1.43;350
1188;458;0.0433;0.01050;0.000428;1.43;350
1190;458;0.0434;0.01050;0.000428;1.44;350
1192;458;0.0434;0.01050;0.000429;1.44;350
1194;458;0.0435;0.01050;0.00043;1.44;350
1196;458;0.0436;0.01050;0.00043;1.44;350
1198;458;0.0436;0.01050;0.000431;1.44;350
1200;458;0.0437;0.01060;0.000431;1.45;350
1202;457;0.0438;0.01060;0.000432;1.45;350
1204;457;0.0438;0.01060;0.000433;1.45;350
1206;457;0.0439;0.01060;0.000433;1.45;350
1208;457;0.0439;0.01060;0.000434;1.45;350
1210;457;0.044;0.01060;0.000434;1.45;350
1212;457;0.0441;0.01060;0.000435;1.45;350
1214;456;0.0441;0.01070;0.000436;1.45;350
1216;456;0.0442;0.01070;0.000436;1.45;350
1218;456;0.0443;0.01070;0.000437;1.45;350
1220;456;0.0443;0.01070;0.000437;1.45;350
1222;455;0.0444;0.01070;0.000438;1.45;350
1224;455;0.0444;0.01070;0.000439;1.45;350
1226;455;0.0445;0.01070;0.000439;1.46;350
1228;455;0.0446;0.01080;0.00044;1.46;350
1230;455;0.0446;0.01080;0.00044;1.46;350
1232;455;0.0447;0.01080;0.000441;1.46;350
1234;455;0.0447;0.01080;0.000442;1.46;350
1236;455;0.0448;0.01080;0.000442;1.46;350
1238;455;0.0449;0.01080;0.000443;1.47;350
1240;455;0.0449;0.01080;0.000444;1.48;350
1242;455;0.045;0.01090;0.000444;1.48;350
1244;455;0.045;0.01090;0.000445;1.48;350
1246;455;0.0451;0.01090;0.000445;1.48;350
1248;455;0.0452;0.01090;0.000446;1.48;350
1250;455;0.0452;0.01090;0.000447;1.48;350
1252;455;0.0453;0.01090;0.000447;1.49;350
1254;455;0.0454;0.01100;0.000448;1.49;350
1256;455;0.0454;0.01100;0.000448;1.49;350
1258;455;0.0455;0.01100;0.000449;1.5;350
1260;455;0.0455;0.01100;0.000449;1.5;350
1262;455;0.0456;0.01100;0.00045;1.51;350
1264;455;0.0457;0.01100;0.000451;1.5;350
1266;455;0.0457;0.01100;0.000451;1.5;350
1268;455;0.0458;0.01110;0.000452;1.51;350
1270;455;0.0458;0.01110;0.000452;1.51;350
1272;455;0.0459;0.01110;0.000453;1.52;350
1274;455;0.046;0.01110;0.000454;1.51;350
1276;455;0.046;0.01110;0.000454;1.52;350
1278;455;0.0461;0.01110;0.000455;1.52;350
1280;455;0.0462;0.01110;0.000455;1.52;350
1282;454;0.0462;0.01120;0.000456;1.52;350
1284;454;0.0463;0.01120;0.000457;1.52;350
1286;454;0.0463;0.01120;0.000457;1.52;350
1288;454;0.0464;0.01120;0.000458;1.53;350
1290;454;0.0465;0.01120;0.000458;1.53;350
1292;454;0.0465;0.01120;0.000459;1.53;350
1294;454;0.0466;0.01120;0.00046;1.53;350
1296;453;0.0466;0.01130;0.00046;1.53;350
1298;453;0.0467;0.01130;0.000461;1.53;350
1300;453;0.0468;0.01130;0.000461;1.53;350
1302;453;0.0468;0.01130;0.000462;1.54;350
1304;453;0.0469;0.01130;0.000463;1.54;350
1306;453;0.047;0.01130;0.000463;1.53;350
1308;453;0.047;0.01130;0.000464;1.54;350
1310;453;0.0471;0.01140;0.000464;1.54;350
1312;452;0.0471;0.01140;0.000465;1.54;350
1314;452;0.0472;0.01140;0.000466;1.54;350
1316;452;0.0473;0.01140;0.000466;1.54;350
1318;452;0.0473;0.01140;0.000467;1.54;350
1320;452;0.0474;0.01140;0.000467;1.54;350
1322;451;0.0474;0.01140;0.000468;1.54;350
1324;451;0.0475;0.01150;0.000469;1.54;350
1326;451;0.0476;0.01150;0.000469;1.54;350
1328;451;0.0476;0.01150;0.00047;1.55;350
1330;450;0.0477;0.01150;0.00047;1.54;350
1332;450;0.0478;0.01150;0.000471;1.54;350
1334;450;0.0478;0.01150;0.000472;1.55;350
1336;450;0.0479;0.01160;0.000472;1.54;350
1338;449;0.0479;0.01160;0.000473;1.54;350
1340;449;0.048;0.01160;0.000473;1.54;350
1342;449;0.0481;0.01160;0.000474;1.54;350
1344;449;0.0481;0.01160;0.000475;1.54;350
1346;448;0.0482;0.01160;0.000475;1.54;350
1348;448;0.0482;0.01160;0.000476;1.54;350
1350;448;0.0483;0.01170;0.000476;1.54;350
1352;448;0.0484;0.01170;0.000477;1.54;350
1354;448;0.0484;0.01170;0.000478;1.54;350
1356;447;0.0485;0.01170;0.000478;1.54;350
1358;447;0.0485;0.01170;0.000478;0.772;350
1360;447;0.0485;0.01170;0.000478;0.771;350
1362;447;0.0485;0.01170;0.000478;0.772;350
1364;447;0.0485;0.01170;0.000478;0.772;350
1366;446;0.0485;0.01170;0.000478;0.769;350
1368;446;0.0485;0.01170;0.000478;0.775;350
1370;446;0.0485;0.01170;0.000478;0.771;350
1372;446;0.0485;0.01170;0.000478;0.771;350
1374;446;0.0485;0.01170;0.000478;0.773;350
1376;446;0.0485;0.01170;0.000478;0.771;350
1378;445;0.0485;0.01170;0.000478;0.772;350
1380;445;0.0485;0.01170;0.000478;0.772;350
1382;445;0.0485;0.01170;0.000478;0.772;350
1384;445;0.0485;0.01170;0.000478;0.774;350
1386;445;0.0485;0.01170;0.000478;0.774;350
1388;445;0.0485;0.01170;0.000478;0.774;350
1390;445;0.0485;0.01170;0.000478;0.773;350
1392;445;0.0485;0.01170;0.000478;0.776;350
1394;445;0.0485;0.01170;0.000478;0.776;350
1396;445;0.0485;0.01170;0.000478;0.775;350
1398;445;0.0485;0.01170;0.000478;0.777;350
1400;445;0.0485;0.01170;0.000478;0.776;350
1402;445;0.0485;0.01170;0.000478;0.779;350
1404;445;0.0485;0.01170;0.000478;0.78;350
1406;445;0.0485;0.01170;0.000478;0.779;350
1408;445;0.0485;0.01170;0.000478;0.781;350
1410;446;0.0485;0.01170;0.000478;0.783;350
1412;446;0.0485;0.01170;0.000478;0.785;350
1414;446;0.0485;0.01170;0.000478;0.792;350
1416;446;0.0485;0.01170;0.000478;0.791;350
1418;447;0.0485;0.01170;0.000478;0.798;350
1420;447;0.0485;0.01170;0.000478;0.797;350
1422;447;0.0485;0.01170;0.000478;0.798;350
1424;448;0.0485;0.01170;0.000478;0.807;350
1426;448;0.0485;0.01170;0.000478;0.805;350
1428;449;0.0485;0.01170;0.000478;0.813;350
1430;449;0.0485;0.01170;0.000478;0.811;350
1432;449;0.0485;0.01170;0.000478;0.813;350
1434;450;0.0485;0.01170;0.000478;0.816;350
1436;451;0.0485;0.01170;0.000478;0.819;350
1438;451;0.0485;0.01170;0.000478;0.821;350
1440;451;0.0485;0.01170;0.000478;0.826;350
1442;452;0.0485;0.01170;0.000478;0.828;350
1444;452;0.0485;0.01170;0.000478;0.834;350
1446;453;0.0485;0.01170;0.000478;0.835;350
1448;453;0.0485;0.01170;0.000478;0.84;350
1450;454;0.0485;0.01170;0.000478;0.843;350
1452;455;0.0485;0.01170;0.000478;0.846;350
1454;455;0.0485;0.01170;0.000478;0.852;350
1456;456;0.0485;0.01170;0.000478;0.855;350
1458;457;0.0485;0.01170;0.000478;0.861;350
1460;457;0.0485;0.01170;0.000478;0.864;350
1462;458;0.0485;0.01170;0.000478;0.868;350
1464;459;0.0485;0.01170;0.000478;0.873;350
1466;459;0.0485;0.01170;0.000478;0.875;350
1468;460;0.0485;0.01170;0.000478;0.882;350
1470;460;0.0485;0.01170;0.000478;0.89;350
1472;461;0.0485;0.01170;0.000478;0.889;350
1474;461;0.0485;0.01170;0.000478;0.9;350
1476;462;0.0485;0.01170;0.000478;0.898;350
1478;462;0.0485;0.01170;0.000478;0.906;350
1480;463;0.0485;0.01170;0.000478;0.907;350
1482;463;0.0485;0.01170;0.000478;0.907;350
1484;464;0.0485;0.01170;0.000478;0.912;350
1486;464;0.0485;0.01170;0.000478;0.913;350
1488;465;0.0485;0.01170;0.000478;0.918;350
1490;465;0.0485;0.01170;0.000478;0.919;350
1492;465;0.0485;0.01170;0.000478;0.921;350
1494;465;0.0485;0.01170;0.000478;0.926;350
1496;466;0.0485;0.01170;0.000478;0.927;350
1498;466;0.0485;0.01170;0.000478;0.932;350
1500;466;0.0485;0.01170;0.000478;0.934;350
1502;467;0.0485;0.01170;0.000478;0.936;350
1504;467;0.0485;0.01170;0.000478;0.94;350
1506;467;0.0485;0.01170;0.000478;0.942;350
1508;468;0.0485;0.01170;0.000478;0.948;350
1510;468;0.0485;0.01170;0.000478;0.951;350
1512;468;0.0485;0.01170;0.000478;0.955;350
1514;469;0.0485;0.01170;0.000478;0.957;350
1516;469;0.0485;0.01170;0.000478;0.96;350
1518;469;0.0485;0.01170;0.000478;0.966;350
1520;469;0.0485;0.01170;0.000478;0.967;350
1522;470;0.0485;0.01170;0.000478;0.967;350
1524;470;0.0485;0.01170;0.000478;0.975;350
1526;470;0.0485;0.01170;0.000478;0.974;350
1528;470;0.0485;0.01170;0.000478;0.977;350
1530;471;0.0485;0.01170;0.000478;0.979;350
1532;471;0.0485;0.01170;0.000478;0.98;350
1534;471;0.0485;0.01170;0.000478;0.986;350
1536;471;0.0485;0.01170;0.000478;0.984;350
1538;471;0.0485;0.01170;0.000478;0.991;350
1540;471;0.0485;0.01170;0.000478;0.99;350
1542;472;0.0485;0.01170;0.000478;0.992;350
1544;472;0.0485;0.01170;0.000478;0.996;350
1546;472;0.0485;0.01170;0.000478;0.995;350
1548;472;0.0485;0.00981;0.0023;1;350
1550;472;0.0485;0.00980;0.00231;1;350
1552;472;0.0485;0.00981;0.0023;1;350
1554;472;0.0485;0.00981;0.0023;1;350
1556;472;0.0485;0.00981;0.0023;1.01;350
1558;472;0.0485;0.00981;0.0023;1.01;350
1560;472;0.0485;0.00981;0.0023;1.01;350
1562;472;0.0485;0.00982;0.0023;1.01;350
1564;472;0.0485;0.00984;0.00227;1.01;350
1566;472;0.0485;0.00984;0.00227;1.01;350
1568;472;0.0485;0.00985;0.00227;1.02;350
1570;472;0.0485;0.00985;0.00227;1.02;350
1572;472;0.0485;0.00987;0.00225;1.02;350
1574;472;0.0485;0.00987;0.00225;1.02;350
1576;472;0.0485;0.00992;0.00221;1.02;350
1578;472;0.0485;0.00994;0.00219;1.02;350
1580;472;0.0485;0.00998;0.00216;1.02;350
1582;472;0.0485;0.00999;0.00215;1.02;350
1584;471;0.0485;0.01000;0.00211;1.03;350
1586;472;0.0485;0.01010;0.0021;1.03;350
1588;471;0.0485;0.01010;0.00204;1.03;350
1590;471;0.0485;0.01020;0.00201;1.03;350
1592;471;0.0485;0.01020;0.00198;1.03;350
1594;471;0.0485;0.01020;0.00197;1.03;350
1596;471;0.0485;0.01020;0.00193;1.03;350
1598;471;0.0485;0.01030;0.00191;1.04;350
1600;471;0.0485;0.01030;0.00187;1.04;350
1602;471;0.0485;0.01030;0.00185;1.04;350
1604;471;0.0485;0.01040;0.00182;1.04;350
1606;471;0.0485;0.01040;0.00181;1.04;350
1608;471;0.0485;0.01040;0.00179;1.05;350
1610;471;0.0485;0.01040;0.00179;1.05;350
1612;471;0.0485;0.01040;0.00177;1.05;350
1614;471;0.0485;0.01051;0.00174;1.05;350
1616;471;0.0485;0.01051;0.00172;1.06;350
1618;471;0.0485;0.01051;0.00172;1.06;350
1620;471;0.0485;0.01051;0.00172;1.06;350
1622;471;0.0485;0.01051;0.0017;1.06;350
1624;471;0.0485;0.01051;0.00169;1.06;350
1626;471;0.0485;0.01051;0.00166;1.06;350
1628;471;0.0485;0.01051;0.00166;1.06;350
1630;471;0.0485;0.01051;0.00166;1.07;350
1632;471;0.0485;0.01051;0.00165;1.06;350
1634;471;0.0485;0.01061;0.00162;1.06;350
1636;471;0.0485;0.01061;0.00163;1.07;350
1638;471;0.0485;0.01061;0.00163;1.07;350
1640;471;0.0485;0.01061;0.0016;1.07;350
1642;471;0.0485;0.01062;0.00162;1.07;350
1644;471;0.0485;0.01062;0.00162;1.07;350
1646;471;0.0485;0.01062;0.0016;1.07;350
1648;471;0.0485;0.01062;0.00163;1.08;350
1650;471;0.0485;0.01062;0.00161;1.08;350
1652;471;0.0485;0.01062;0.00161;1.08;350
1654;471;0.0485;0.01062;0.00161;1.08;350
1656;471;0.0485;0.01062;0.00159;1.09;350
1658;471;0.0485;0.01062;0.00161;1.09;350
1660;471;0.0485;0.01062;0.00161;1.09;350
1662;471;0.0485;0.01062;0.00161;1.09;350
1664;471;0.0485;0.01062;0.00162;1.09;350
1666;471;0.0485;0.01062;0.0016;1.09;350
1668;471;0.0485;0.01062;0.00162;1.09;350
1670;471;0.0485;0.01063;0.0016;1.1;350
1672;471;0.0485;0.01063;0.00162;1.1;350
1674;471;0.0485;0.01063;0.00161;1.1;350
1676;471;0.0485;0.01063;0.00162;1.1;350
1678;471;0.0485;0.01063;0.00161;1.1;350
1680;471;0.0485;0.01063;0.00161;1.11;350
1682;471;0.0485;0.01063;0.0016;1.11;350
1684;471;0.0485;0.01063;0.0016;1.11;350
1686;471;0.0485;0.01063;0.00161;1.11;350
1688;471;0.0485;0.01063;0.00161;1.11;350
1690;471;0.0485;0.01063;0.0016;1.12;350
1692;471;0.0485;0.01063;0.00163;1.11;350
1694;471;0.0485;0.01063;0.00161;1.12;350
1696;471;0.0485;0.01063;0.00163;1.12;350
1698;471;0.0485;0.01063;0.00162;1.12;350
1700;471;0.0485;0.01064;0.00164;1.12;350
1702;471;0.0485;0.01064;0.00165;1.12;350
1704;471;0.0485;0.01064;0.00163;1.12;350
1706;471;0.0485;0.01064;0.00164;1.13;350
1708;471;0.0485;0.01064;0.00163;1.13;350
1710;471;0.0485;0.01064;0.00163;1.13;350
1712;471;0.0485;0.01064;0.00164;1.13;350
1714;471;0.0485;0.01064;0.00163;1.13;350
1716;471;0.0485;0.01064;0.00165;1.13;350
1718;471;0.0485;0.01054;0.00166;1.13;350
1720;471;0.0485;0.01064;0.00164;1.14;350
1722;471;0.0485;0.01054;0.00165;1.14;350
1724;471;0.0485;0.01054;0.00167;1.14;350
1726;471;0.0485;0.01054;0.00166;1.15;350
1728;471;0.0485;0.01055;0.00167;1.14;350
1730;471;0.0485;0.01055;0.00168;1.15;350
1732;471;0.0485;0.01055;0.00168;1.15;350
1734;471;0.0485;0.01055;0.00169;1.15;350
1736;471;0.0485;0.01055;0.00169;1.15;350
1738;471;0.0485;0.01055;0.00168;1.15;350
1740;471;0.0485;0.01055;0.00168;1.15;350
1742;471;0.0485;0.01055;0.00169;1.16;350
1744;471;0.0485;0.01055;0.00168;1.16;350
1746;471;0.0485;0.01055;0.00167;1.16;350
1748;471;0.0485;0.01055;0.00169;1.16;350
1750;471;0.0485;0.01055;0.00169;1.16;350
1752;471;0.0485;0.01055;0.00169;1.16;350
1754;470;0.0485;0.01055;0.00168;1.16;350
1756;471;0.0485;0.01056;0.00168;1.17;350
1758;470;0.0485;0.01056;0.0017;1.17;350
1760;470;0.0485;0.01056;0.0017;1.17;350
1762;470;0.0485;0.01056;0.0017;1.17;350
1764;470;0.0485;0.01056;0.00169;1.17;350
1766;470;0.0485;0.01056;0.0017;1.17;350
1768;470;0.0485;0.01056;0.00172;1.17;350
1770;470;0.0485;0.01056;0.00171;1.17;350
1772;470;0.0485;0.01056;0.0017;1.17;350
1774;470;0.0485;0.01056;0.00169;1.18;350
1776;470;0.0485;0.01056;0.00171;1.18;350
1778;470;0.0485;0.01056;0.00171;1.18;350
1780;470;0.0485;0.01056;0.00169;1.18;350
1782;470;0.0485;0.01056;0.00168;1.18;350
1784;470;0.0485;0.01057;0.00169;1.18;350
1786;470;0.0485;0.01057;0.00171;1.18;350
1788;470;0.0485;0.01057;0.00171;1.18;350
1790;470;0.0485;0.01057;0.0017;1.19;350
1792;470;0.0485;0.01057;0.0017;1.19;350
1794;470;0.0485;0.01057;0.0017;1.19;350
1796;470;0.0485;0.01057;0.00172;1.19;350
1798;470;0.0485;0.01057;0.00173;1.19;350
1800;470;0.0485;0.01057;0.00174;1.2;350
1802;470;0.0485;0.01057;0.00173;1.19;350
1804;470;0.0485;0.01057;0.00174;1.2;350
1806;469;0.0485;0.01057;0.00174;1.2;350
1808;469;0.0485;0.01057;0.00174;1.2;350
1810;469;0.0485;0.01057;0.00173;1.2;350
1812;469;0.0485;0.01057;0.00173;1.21;350
1814;469;0.0485;0.01058;0.00173;1.2;350
1816;469;0.0485;0.01058;0.00173;1.21;350
1818;469;0.0485;0.01058;0.00173;1.21;350
1820;469;0.0485;0.01058;0.00172;1.21;350
1822;469;0.0485;0.01058;0.00173;1.21;350
1824;469;0.0485;0.01058;0.00173;1.21;350
1826;469;0.0485;0.01058;0.00173;1.21;350
1828;469;0.0485;0.01058;0.00174;1.21;350
1830;469;0.0485;0.01058;0.00174;1.21;350
1832;469;0.0485;0.01048;0.00174;1.21;350
1834;469;0.0485;0.01048;0.00175;1.22;350
1836;468;0.0485;0.01048;0.00175;1.22;350
1838;468;0.0485;0.01048;0.00175;1.22;350
1840;468;0.0485;0.01048;0.00175;1.22;350
1842;468;0.0485;0.01049;0.00176;1.22;350
1844;468;0.0485;0.01049;0.00175;1.22;350
1846;468;0.0485;0.01049;0.00175;1.23;350
1848;468;0.0485;0.01049;0.00176;1.23;350
1850;468;0.0485;0.01049;0.00176;1.23;350
1852;468;0.0485;0.01049;0.00176;1.23;350
1854;468;0.0485;0.01049;0.00175;1.23;350
1856;468;0.0485;0.01059;0.00174;1.23;350
1858;468;0.0485;0.01059;0.00174;1.23;350
1860;468;0.0485;0.01049;0.00175;1.23;350
1862;468;0.0485;0.01059;0.00174;1.23;350
1864;468;0.0485;0.01049;0.00175;1.24;350
1866;468;0.0485;0.01049;0.00175;1.24;350
1868;468;0.0485;0.01049;0.00175;1.24;350
1870;468;0.0485;0.01050;0.00176;1.24;350
1872;468;0.0485;0.01050;0.00176;1.24;350
1874;468;0.0485;0.01050;0.00177;1.24;350
1876;467;0.0485;0.01050;0.00177;1.25;350
1878;467;0.0485;0.01050;0.00177;1.25;350
1880;467;0.0485;0.01050;0.00176;1.24;350
1882;467;0.0485;0.01050;0.00177;1.25;350
1884;467;0.0485;0.01050;0.00178;1.25;350
1886;467;0.0485;0.01050;0.00179;1.25;350
1888;467;0.0485;0.01050;0.0018;1.25;350
1890;467;0.0485;0.01050;0.0018;1.25;350
1892;467;0.0485;0.01050;0.00178;1.25;350
1894;467;0.0485;0.01050;0.00179;1.25;350
1896;467;0.0485;0.01050;0.00181;1.26;350
1898;467;0.0485;0.01050;0.00181;1.26;350
1900;467;0.0485;0.01051;0.0018;1.26;350
1902;467;0.0485;0.01051;0.00178;1.26;350
1904;467;0.0485;0.01051;0.00178;1.26;350
1906;467;0.0485;0.01051;0.00179;1.26;350
1908;467;0.0485;0.01051;0.00179;1.26;350
1910;467;0.0485;0.01051;0.00178;1.26;350
1912;467;0.0485;0.01051;0.00177;1.27;350
1914;466;0.0485;0.01051;0.00179;1.27;350
1916;466;0.0485;0.01051;0.00179;1.27;350
1918;466;0.0485;0.01051;0.0018;1.27;350
1920;466;0.0485;0.01051;0.0018;1.28;350
1922;466;0.0485;0.01051;0.00178;1.28;350
1924;466;0.0485;0.01051;0.0018;1.27;350
1926;466;0.0485;0.01051;0.00182;1.27;350
1928;466;0.0485;0.01052;0.00182;1.28;350
1930;466;0.0485;0.01052;0.00181;1.27;350
1932;466;0.0485;0.01052;0.00182;1.28;350
1934;466;0.0485;0.01042;0.00184;1.28;350
1936;466;0.0485;0.01042;0.00184;1.28;350
1938;466;0.0485;0.01052;0.00181;1.28;350
1940;466;0.0485;0.01052;0.00183;1.28;350
1942;465;0.0485;0.01042;0.00184;1.28;350
1944;465;0.0485;0.01042;0.00184;1.29;350
1946;465;0.0485;0.01052;0.00182;1.29;350
1948;465;0.0485;0.01042;0.00184;1.29;350
1950;465;0.0485;0.01042;0.00184;1.29;350
1952;465;0.0485;0.01052;0.00182;1.29;350
1954;465;0.0485;0.01052;0.00182;1.29;350
1956;465;0.0485;0.01053;0.00183;1.29;350
1958;465;0.0485;0.01053;0.00182;1.29;350
1960;465;0.0485;0.01053;0.00181;1.3;350
1962;465;0.0485;0.01053;0.00183;1.3;350
1964;465;0.0485;0.01053;0.00182;1.3;350
1966;465;0.0485;0.01053;0.00181;1.3;350
1968;465;0.0485;0.01053;0.00182;1.3;350
1970;465;0.0485;0.01053;0.00181;1.3;350
1972;465;0.0485;0.01053;0.00181;1.3;350
1974;465;0.0485;0.01053;0.00182;1.3;350
1976;465;0.0485;0.01053;0.00182;1.31;350
1978;465;0.0485;0.01053;0.00181;1.31;350
1980;465;0.0485;0.01053;0.00183;1.31;350
1982;464;0.0485;0.01053;0.00183;1.31;350
1984;464;0.0485;0.01053;0.00182;1.31;350
1986;464;0.0485;0.01054;0.00184;1.31;350
1988;464;0.0485;0.01054;0.00183;1.31;350
1990;464;0.0485;0.01054;0.00182;1.31;350
1992;464;0.0485;0.01054;0.00184;1.32;350
1994;464;0.0485;0.01044;0.00184;1.32;350
1996;464;0.0485;0.01054;0.00182;1.32;350
1998;464;0.0485;0.01044;0.00184;1.32;350
2000;464;0.0485;0.01044;0.00184;1.32;350
2002;464;0.0485;0.01054;0.00182;1.32;350
2004;464;0.0485;0.01044;0.00184;1.32;350
2006;464;0.0485;0.01044;0.00184;1.33;350
2008;464;0.0485;0.01054;0.00183;1.33;350
2010;464;0.0485;0.01044;0.00184;1.32;350
2012;464;0.0485;0.01044;0.00185;1.33;350
2014;464;0.0485;0.01055;0.00183;1.33;350
2016;464;0.0485;0.01045;0.00184;1.33;350
2018;464;0.0485;0.01045;0.00184;1.33;350
2020;464;0.0485;0.01045;0.00186;1.33;350
2022;464;0.0485;0.01045;0.00184;1.33;350
2024;464;0.0485;0.01045;0.00186;1.34;350
2026;464;0.0485;0.01045;0.00186;1.33;350
2028;464;0.0485;0.01045;0.00185;1.34;350
2030;464;0.0485;0.01045;0.00186;1.34;350
2032;464;0.0485;0.01045;0.00184;1.34;350
2034;464;0.0485;0.01045;0.00185;1.34;350
2036;464;0.0485;0.01045;0.00186;1.34;350
2038;464;0.0485;0.01045;0.00184;1.35;350
2040;464;0.0485;0.01045;0.00186;1.34;350
2042;464;0.0485;0.01046;0.00184;1.35;350
2044;464;0.0485;0.01046;0.00186;1.35;350
2046;464;0.0485;0.01046;0.00186;1.35;350
2048;464;0.0485;0.01046;0.00186;1.35;350
2050;464;0.0485;0.01046;0.00187;1.35;350
2052;464;0.0485;0.01046;0.00188;1.36;350
2054;464;0.0485;0.01046;0.00187;1.36;350
2056;464;0.0485;0.01046;0.00188;1.36;350
2058;464;0.0485;0.01046;0.00187;1.36;350
2060;464;0.0485;0.01046;0.00187;1.36;350
2062;464;0.0485;0.01046;0.00189;1.36;350
2064;464;0.0485;0.01046;0.00186;1.36;350
2066;464;0.0485;0.01046;0.00188;1.37;350
2068;464;0.0485;0.01046;0.00188;1.37;350
2070;464;0.0485;0.01047;0.00187;1.37;350
2072;464;0.0485;0.01047;0.00188;1.37;350
2074;464;0.0485;0.01047;0.00187;1.37;350
2076;464;0.0485;0.01047;0.00188;1.37;350
2078;464;0.0485;0.01047;0.00189;1.38;350
2080;464;0.0485;0.01047;0.0019;1.38;350
2082;464;0.0485;0.01047;0.00189;1.38;350
2084;464;0.0485;0.01047;0.0019;1.38;350
2086;465;0.0485;0.01047;0.00189;1.38;350
2088;465;0.0485;0.01047;0.0019;1.38;350
2090;465;0.0485;0.01047;0.00189;1.39;350
2092;465;0.0485;0.01047;0.00191;1.39;350
2094;466;0.0485;0.01047;0.0019;1.39;350
2096;466;0.0485;0.01047;0.00192;1.39;350
2098;466;0.0485;0.01047;0.0019;1.4;350
2100;466;0.0485;0.01048;0.00192;1.4;350
2102;467;0.0485;0.01048;0.00191;1.4;350
2104;467;0.0485;0.01048;0.00192;1.41;350
2106;467;0.0485;0.01048;0.00192;1.41;350
2108;467;0.0485;0.01048;0.00192;1.41;350
2110;467;0.0485;0.01048;0.00192;1.42;350
2112;468;0.0485;0.01048;0.00191;1.41;350
2114;468;0.0485;0.01048;0.00192;1.42;350
2116;468;0.0485;0.01048;0.00191;1.42;350
2118;468;0.0485;0.01048;0.00192;1.42;350
2120;468;0.0485;0.01048;0.00191;1.43;350
2122;468;0.0485;0.01038;0.00193;1.42;350
2124;468;0.0485;0.01048;0.0019;1.43;350
2126;469;0.0485;0.01038;0.00193;1.43;350
2128;469;0.0485;0.01049;0.00192;1.43;350
2130;469;0.0485;0.01039;0.00194;1.43;350
2132;469;0.0485;0.01049;0.00192;1.44;350
2134;469;0.0485;0.01039;0.00194;1.44;350
2136;469;0.0485;0.01039;0.00195;1.44;350
2138;469;0.0485;0.01049;0.00192;1.44;350
2140;469;0.0485;0.01039;0.00195;1.44;350
2142;469;0.0485;0.01039;0.00195;1.45;350
2144;469;0.0485;0.01039;0.00194;1.45;350
2146;469;0.0485;0.01039;0.00196;1.45;350
2148;469;0.0485;0.01039;0.00197;1.45;350
2150;469;0.0485;0.01039;0.00195;1.45;350
2152;469;0.0485;0.01039;0.00198;1.45;350
2154;469;0.0485;0.01039;0.00196;1.46;350
2156;469;0.0485;0.01040;0.00195;1.46;350
2158;469;0.0485;0.01040;0.00198;1.46;350
2160;469;0.0485;0.01040;0.00197;1.46;350
2162;469;0.0485;0.01040;0.00197;1.46;350
2164;469;0.0485;0.01040;0.00198;1.46;350
2166;469;0.0485;0.01040;0.00197;1.47;350
2168;469;0.0485;0.01040;0.00197;1.47;350
2170;469;0.0485;0.01040;0.00198;1.47;350
2172;469;0.0485;0.01040;0.00196;1.47;350
2174;469;0.0485;0.01040;0.00197;1.47;350
2176;469;0.0485;0.01040;0.00199;1.47;350
2178;469;0.0485;0.01040;0.00198;1.47;350
2180;469;0.0485;0.01040;0.00199;1.47;350
2182;469;0.0485;0.01040;0.00199;1.48;350
2184;468;0.0485;0.01040;0.00199;1.48;350
2186;468;0.0485;0.01031;0.00201;1.48;350
2188;468;0.0485;0.01041;0.002;1.48;350
2190;468;0.0485;0.01041;0.00201;1.48;350
2192;468;0.0485;0.01031;0.00203;1.48;350
2194;468;0.0485;0.01031;0.00202;1.48;350
2196;468;0.0485;0.01031;0.00203;1.48;350
2198;468;0.0485;0.01031;0.00204;1.49;350
2200;468;0.0485;0.01031;0.00203;1.49;350
2202;468;0.0485;0.01041;0.00201;1.49;350
2204;468;0.0485;0.01031;0.00203;1.49;350
2206;468;0.0485;0.01031;0.00202;1.49;350
2208;467;0.0485;0.01041;0.00201;1.49;350
2210;467;0.0485;0.01031;0.00202;1.49;350
2212;467;0.0485;0.01031;0.00203;1.49;350
2214;467;0.0485;0.01042;0.002;1.49;350
2216;467;0.0485;0.01032;0.00202;1.49;350
2218;467;0.0485;0.01032;0.00204;1.49;350
2220;467;0.0485;0.01042;0.00201;1.49;350
2222;467;0.0485;0.01032;0.00204;1.49;350
2224;467;0.0485;0.01032;0.00205;1.49;350
2226;467;0.0485;0.01032;0.00203;1.5;350
2228;466;0.0485;0.01032;0.00205;1.5;350
2230;466;0.0485;0.01032;0.00205;1.5;350
2232;466;0.0485;0.01032;0.00204;1.5;350
2234;466;0.0485;0.01032;0.00206;1.5;350
2236;466;0.0485;0.01032;0.00206;1.5;350
2238;466;0.0485;0.01032;0.00204;1.51;350
2240;466;0.0485;0.01032;0.00204;1.51;350
2242;466;0.0485;0.01033;0.00205;1.51;350
2244;465;0.0485;0.01033;0.00206;1.51;350
2246;465;0.0485;0.01033;0.00205;1.51;350
2248;465;0.0485;0.01033;0.00205;1.51;350
2250;465;0.0485;0.01033;0.00207;1.51;350
2252;465;0.0485;0.01033;0.00205;1.51;350
2254;465;0.0485;0.01033;0.00206;1.51;350
2256;464;0.0485;0.01033;0.00208;1.52;350
2258;464;0.0485;0.01033;0.00209;1.52;350
2260;464;0.0485;0.01033;0.00207;1.52;350
2262;464;0.0485;0.01023;0.00211;1.52;350
2264;464;0.0485;0.01033;0.0021;1.52;350
2266;464;0.0485;0.01033;0.00209;1.52;350
2268;464;0.0485;0.01023;0.00211;1.52;350
2270;464;0.0485;0.01023;0.00211;1.52;350
2272;464;0.0485;0.01024;0.0021;1.52;350
2274;463;0.0485;0.01024;0.00212;1.52;350
2276;463;0.0485;0.01024;0.00213;1.52;350
2278;463;0.0485;0.01024;0.00211;1.52;350
2280;463;0.0485;0.01024;0.00212;1.52;350
2282;463;0.0485;0.01024;0.00213;1.52;350
2284;463;0.0485;0.01024;0.00213;1.52;350
2286;463;0.0485;0.01024;0.0021;1.52;350
2288;462;0.0485;0.01024;0.00213;1.52;350
2290;462;0.0485;0.01024;0.00214;1.52;350
2292;462;0.0485;0.01024;0.00213;1.52;350
2294;462;0.0485;0.01023;0.00215;1.52;350
2296;462;0.0485;0.01024;0.00213;1.53;350
2298;462;0.0485;0.01024;0.00212;1.53;350
2300;461;0.0485;0.01025;0.00214;1.52;350
2302;461;0.0485;0.01025;0.00213;1.53;350
2304;461;0.0485;0.01025;0.00214;1.53;350
2306;461;0.0485;0.01025;0.00215;1.53;350
2308;460;0.0485;0.01025;0.00213;1.53;350
2310;460;0.0485;0.01025;0.00214;1.53;350
2312;460;0.0485;0.01025;0.00214;1.53;350
2314;459;0.0485;0.01025;0.00212;1.53;350
2316;459;0.0485;0.01025;0.00213;1.53;350
2318;459;0.0485;0.01025;0.00215;1.53;350
2320;458;0.0485;0.01025;0.00213;1.53;350
2322;458;0.0485;0.01025;0.00214;1.53;350
2324;458;0.0485;0.01024;0.00215;1.52;350
2326;457;0.0485;0.01025;0.00214;1.52;350
2328;457;0.0485;0.01026;0.00213;1.52;350
2330;456;0.0485;0.01025;0.00215;1.53;350
2332;456;0.0485;0.01025;0.00215;1.53;350
2334;455;0.0485;0.01025;0.00215;1.52;350
2336;455;0.0485;0.01024;0.00216;1.52;350
2338;455;0.0485;0.01023;0.00217;1.52;350
2340;454;0.0485;0.01025;0.00215;1.52;350
2342;454;0.0485;0.01023;0.00217;1.52;350
2344;453;0.0485;0.01022;0.00217;1.52;350
2346;453;0.0485;0.01025;0.00215;1.52;350
2348;453;0.0485;0.01023;0.00216;1.52;350
2350;453;0.0485;0.01021;0.00218;1.51;350
2352;452;0.0485;0.01024;0.00216;1.52;350
2354;452;0.0485;0.01023;0.00217;1.52;350
2356;452;0.0485;0.01021;0.00219;1.52;350
2358;451;0.0485;0.01022;0.00218;1.52;350
2360;451;0.0485;0.01023;0.00217;1.52;350
2362;451;0.0485;0.01022;0.00219;1.52;350
2364;451;0.0485;0.01021;0.00219;1.52;350
2366;451;0.0485;0.01024;0.00217;1.51;350
2368;450;0.0485;0.01021;0.00219;1.51;350
2370;450;0.0485;0.01020;0.0022;1.51;350
2372;450;0.0485;0.01022;0.00219;1.51;350
2374;450;0.0485;0.01020;0.0022;1.51;350
2376;450;0.0485;0.01020;0.0022;1.51;350
2378;449;0.0485;0.01022;0.00218;1.52;350
2380;449;0.0485;0.01021;0.0022;1.51;350
2382;449;0.0485;0.01021;0.0022;1.51;350
2384;449;0.0485;0.01024;0.00217;1.52;350
2386;449;0.0485;0.01023;0.00218;1.51;350
2388;449;0.0485;0.01022;0.00219;1.51;350
2390;448;0.0485;0.01023;0.00219;1.51;350
2392;448;0.0485;0.01025;0.00217;1.52;350
2394;448;0.0485;0.01022;0.00219;1.52;350
2396;448;0.0485;0.01021;0.00221;1.52;350
2398;448;0.0485;0.01023;0.00218;1.52;350
2400;448;0.0485;0.01021;0.0022;1.52;350
2402;448;0.0485;0.01019;0.00222;1.52;350
2404;448;0.0485;0.01018;0.00223;1.52;350
2406;447;0.0485;0.01019;0.00222;1.52;350
2408;447;0.0485;0.01019;0.00222;1.52;350
2410;447;0.0485;0.01017;0.00224;1.52;350
2412;447;0.0485;0.01016;0.00224;1.52;350
2414;447;0.0485;0.01017;0.00224;1.52;350
2416;447;0.0485;0.01017;0.00224;1.52;350
2418;447;0.0485;0.01019;0.00223;1.52;350
2420;446;0.0485;0.01018;0.00224;1.52;350
2422;446;0.0485;0.01017;0.00225;1.52;350
2424;446;0.0485;0.01016;0.00225;1.52;350
2426;446;0.0485;0.01019;0.00223;1.52;350
2428;446;0.0485;0.01018;0.00223;1.52;350
2430;446;0.0485;0.01017;0.00224;1.53;350
2432;446;0.0485;0.01016;0.00225;1.52;350
2434;445;0.0485;0.01016;0.00225;1.53;350
2436;445;0.0485;0.01017;0.00224;1.52;350
2438;445;0.0485;0.01019;0.00223;1.52;350
2440;445;0.0485;0.01016;0.00225;1.52;350
2442;445;0.0485;0.01015;0.00227;1.52;350
2444;445;0.0485;0.01014;0.00228;1.52;350
2446;445;0.0485;0.01015;0.00227;1.53;350
2448;445;0.0485;0.01017;0.00225;1.52;350
2450;445;0.0485;0.01017;0.00225;1.53;350
2452;444;0.0485;0.01016;0.00226;1.52;350
2454;444;0.0485;0.01014;0.00228;1.53;350
2456;444;0.0485;0.01015;0.00227;1.53;350
2458;444;0.0485;0.01018;0.00225;1.52;350
2460;444;0.0485;0.01018;0.00224;1.53;350
2462;444;0.0485;0.01017;0.00225;1.53;350
2464;444;0.0485;0.01017;0.00225;1.53;350
2466;444;0.0485;0.01015;0.00226;1.52;350
2468;444;0.0485;0.01015;0.00227;1.53;350
2470;443;0.0485;0.01018;0.00225;1.53;350
2472;443;0.0485;0.01018;0.00225;1.52;350
2474;442;0.0485;0.01016;0.00226;1.52;350
2476;441;0.0485;0.01015;0.00227;1.52;350
2478;440;0.0485;0.01014;0.00229;1.51;350
2480;439;0.0485;0.01014;0.00228;1.51;350
2482;437;0.0485;0.01016;0.00227;1.5;350
2484;436;0.0485;0.01017;0.00226;1.49;350
2486;435;0.0485;0.01015;0.00228;1.49;350
2488;434;0.0485;0.01014;0.00229;1.49;350
2490;433;0.0485;0.01014;0.00228;1.49;350
2492;433;0.0485;0.01013;0.00229;1.48;350
2494;432;0.0485;0.01014;0.00229;1.48;350
2496;431;0.0485;0.01016;0.00227;1.48;350
2498;431;0.0485;0.01016;0.00227;1.47;350
2500;430;0.0485;0.01016;0.00228;1.48;350
2502;430;0.0485;0.01015;0.00229;1.47;350
2504;430;0.0485;0.01013;0.0023;1.47;350
2506;429;0.0485;0.01012;0.00231;1.47;350
2508;429;0.0485;0.01012;0.00231;1.46;350
2510;429;0.0485;0.01012;0.00231;1.47;350
2512;428;0.0485;0.01012;0.00231;1.46;350
2514;428;0.0485;0.01011;0.00232;1.47;350
2516;428;0.0485;0.01011;0.00231;1.47;350
2518;428;0.0485;0.01010;0.00233;1.46;350
2520;428;0.0485;0.01010;0.00232;1.46;350
2522;428;0.0485;0.01010;0.00232;1.46;350
2524;428;0.0485;0.01011;0.00232;1.46;350
2526;428;0.0485;0.01010;0.00233;1.46;350
2528;427;0.0485;0.01012;0.00232;1.46;350
2530;427;0.0485;0.01013;0.00231;1.46;350
2532;427;0.0485;0.01013;0.00231;1.46;350
2534;427;0.0485;0.01012;0.00232;1.46;350
2536;427;0.0485;0.01013;0.00231;1.46;350
2538;427;0.0485;0.01013;0.00231;1.46;350
2540;427;0.0485;0.01012;0.00231;1.46;350
2542;427;0.0485;0.01013;0.00231;1.46;350
2544;427;0.0485;0.01012;0.00231;1.46;350
2546;427;0.0485;0.01013;0.00231;1.46;350
2548;427;0.0485;0.01012;0.00232;1.46;350
2550;427;0.0485;0.01011;0.00232;1.46;350
2552;427;0.0485;0.01011;0.00232;1.46;350
2554;426;0.0485;0.01010;0.00233;1.46;350
2556;427;0.0485;0.01009;0.00234;1.46;350
2558;426;0.0485;0.01010;0.00234;1.46;350
2560;426;0.0485;0.01011;0.00233;1.46;350
2562;426;0.0485;0.01011;0.00233;1.46;350
2564;426;0.0485;0.01012;0.00232;1.46;350
2566;426;0.0485;0.01010;0.00234;1.46;350
2568;426;0.0485;0.01011;0.00233;1.46;350
2570;426;0.0485;0.01010;0.00234;1.46;350
2572;426;0.0485;0.01011;0.00233;1.46;350
2574;426;0.0485;0.01011;0.00233;1.46;350
2576;426;0.0485;0.01012;0.00233;1.46;350
2578;426;0.0485;0.01011;0.00233;1.46;350
2580;426;0.0485;0.01011;0.00233;1.46;350
2582;426;0.0485;0.01010;0.00234;1.46;350
2584;426;0.0485;0.01009;0.00235;1.46;350
2586;426;0.0485;0.01010;0.00235;1.46;350
2588;426;0.0485;0.01009;0.00236;1.46;350
2590;426;0.0485;0.01009;0.00236;1.46;350
2592;426;0.0485;0.01009;0.00236;1.46;350
2594;426;0.0485;0.01008;0.00237;1.46;350
2596;426;0.0485;0.01008;0.00237;1.46;350
2598;426;0.0485;0.01007;0.00237;1.46;350
2600;426;0.0485;0.01008;0.00237;1.46;350
2602;426;0.0485;0.01009;0.00236;1.46;350
2604;426;0.0485;0.01010;0.00235;1.46;350
2606;426;0.0485;0.01009;0.00236;1.46;350
2608;426;0.0485;0.01010;0.00235;1.47;350
2610;426;0.0485;0.01010;0.00235;1.46;350
2612;426;0.0485;0.01010;0.00235;1.47;350
2614;426;0.0485;0.01009;0.00236;1.47;350
2616;426;0.0485;0.01010;0.00236;1.47;350
2618;426;0.0485;0.01008;0.00237;1.47;350
2620;426;0.0485;0.01008;0.00237;1.46;350
2622;426;0.0485;0.01007;0.00238;1.46;350
2624;426;0.0485;0.01006;0.00239;1.47;350
2626;426;0.0485;0.01005;0.0024;1.47;350
2628;426;0.0485;0.01005;0.0024;1.46;350
2630;426;0.0485;0.01004;0.00241;1.47;350
2632;426;0.0485;0.01004;0.0024;1.47;350
2634;426;0.0485;0.01006;0.00239;1.47;350
2636;426;0.0485;0.01006;0.00239;1.46;350
2638;426;0.0485;0.01006;0.00239;1.46;350
2640;426;0.0485;0.01004;0.0024;1.47;350
2642;426;0.0485;0.01003;0.00242;1.46;350
2644;426;0.0485;0.01003;0.00242;1.47;350
2646;426;0.0485;0.01003;0.00242;1.46;350
2648;425;0.0485;0.01004;0.00241;1.47;350
2650;425;0.0485;0.01005;0.00241;1.46;350
2652;425;0.0485;0.01005;0.0024;1.47;350
2654;425;0.0485;0.01006;0.0024;1.47;350
2656;425;0.0485;0.01007;0.00239;1.47;350
2658;425;0.0485;0.01006;0.00239;1.46;350
2660;425;0.0485;0.01005;0.00241;1.47;350
2662;425;0.0485;0.01005;0.00241;1.46;350
2664;425;0.0485;0.01003;0.00242;1.47;350
2666;425;0.0485;0.01002;0.00243;1.47;350
2668;425;0.0485;0.01003;0.00242;1.47;350
2670;425;0.0485;0.01004;0.00242;1.47;350
2672;425;0.0485;0.01005;0.00242;1.47;350
2674;425;0.0485;0.01004;0.00242;1.47;350
2676;425;0.0485;0.01002;0.00244;1.47;350
2678;425;0.0485;0.01002;0.00244;1.47;350
2680;425;0.0485;0.01002;0.00244;1.47;350
2682;425;0.0485;0.01002;0.00244;1.46;350
2684;425;0.0485;0.01005;0.00241;1.47;350
2686;425;0.0485;0.01006;0.00241;1.47;350
2688;425;0.0485;0.01006;0.0024;1.47;350
2690;425;0.0485;0.01005;0.00242;1.47;350
2692;425;0.0485;0.01003;0.00243;1.47;350
2694;425;0.0485;0.01005;0.00242;1.47;350
2696;425;0.0485;0.01005;0.00241;1.47;350
2698;425;0.0485;0.01006;0.0024;1.46;350
2700;425;0.0485;0.01009;0.00239;1.47;350
2702;424;0.0485;0.01005;0.00242;1.47;350
2704;424;0.0485;0.01004;0.00243;1.46;350
2706;424;0.0485;0.01004;0.00243;1.47;350
2708;424;0.0485;0.01004;0.00243;1.46;350
2710;424;0.0485;0.01005;0.00242;1.46;350
2712;424;0.0485;0.01006;0.00242;1.47;350
2714;424;0.0485;0.01006;0.00241;1.46;350
2716;424;0.0485;0.01003;0.00244;1.47;350
2718;424;0.0485;0.01002;0.00244;1.46;350
2720;424;0.0485;0.01004;0.00243;1.46;350
2722;424;0.0485;0.01005;0.00242;1.47;350
2724;424;0.0485;0.01006;0.00241;1.46;350
2726;424;0.0485;0.01004;0.00243;1.46;350
2728;424;0.0485;0.01004;0.00243;1.46;350
2730;424;0.0485;0.01004;0.00244;1.46;350
2732;424;0.0485;0.01004;0.00244;1.46;350
2734;424;0.0485;0.01007;0.00242;1.46;350
2736;424;0.0485;0.01009;0.0024;1.46;350
2738;423;0.0485;0.01006;0.00242;1.47;350
2740;423;0.0485;0.01005;0.00243;1.46;350
2742;423;0.0485;0.01004;0.00244;1.47;350
2744;423;0.0485;0.01006;0.00242;1.46;350
2746;423;0.0485;0.01008;0.0024;1.47;350
2748;423;0.0485;0.01008;0.00241;1.47;350
2750;423;0.0485;0.01006;0.00242;1.46;350
2752;423;0.0485;0.01005;0.00243;1.46;350
2754;423;0.0485;0.01004;0.00244;1.46;350
2756;423;0.0485;0.01005;0.00243;1.46;350
2758;423;0.0485;0.01007;0.00242;1.46;350
2760;423;0.0485;0.01007;0.00242;1.46;350
2762;423;0.0485;0.01004;0.00244;1.46;350
2764;423;0.0485;0.01004;0.00245;1.46;350
2766;423;0.0485;0.01004;0.00245;1.46;350
2768;423;0.0485;0.01006;0.00243;1.46;350
2770;422;0.0485;0.01005;0.00244;1.46;350
2772;423;0.0485;0.01003;0.00246;1.46;350
2774;422;0.0485;0.01002;0.00246;1.46;350
2776;422;0.0485;0.01002;0.00246;1.46;350
2778;422;0.0485;0.01004;0.00244;1.46;350
2780;422;0.0485;0.01005;0.00244;1.46;350
2782;422;0.0485;0.01005;0.00244;1.46;350
2784;422;0.0485;0.01002;0.00246;1.46;350
2786;422;0.0485;0.01004;0.00246;1.46;350
2788;422;0.0485;0.01005;0.00245;1.46;350
2790;422;0.0485;0.01005;0.00244;1.46;350
2792;422;0.0485;0.01005;0.00244;1.46;350
2794;422;0.0485;0.01002;0.00247;1.46;350
2796;422;0.0485;0.01002;0.00247;1.46;350
2798;422;0.0485;0.01004;0.00246;1.46;350
2800;422;0.0485;0.01005;0.00245;1.47;350
2802;422;0.0485;0.01004;0.00246;1.47;350
2804;422;0.0485;0.01002;0.00247;1.46;350
2806;422;0.0485;0.01003;0.00246;1.46;350
2808;422;0.0485;0.01005;0.00245;1.46;350
2810;422;0.0485;0.01004;0.00245;1.46;350
2812;422;0.0485;0.01002;0.00247;1.46;350
2814;422;0.0485;0.01003;0.00247;1.46;350
2816;422;0.0485;0.01004;0.00246;1.46;350
2818;422;0.0485;0.01006;0.00245;1.46;350
2820;422;0.0485;0.01006;0.00245;1.46;350
2822;422;0.0485;0.01003;0.00247;1.46;350
2824;422;0.0485;0.01001;0.00248;1.46;350
2826;421;0.0485;0.01002;0.00248;1.46;350
2828;421;0.0485;0.01004;0.00247;1.46;350
2830;421;0.0485;0.01002;0.00247;1.46;350
2832;421;0.0485;0.01002;0.00248;1.46;350
2834;421;0.0485;0.01003;0.00247;1.46;350
2836;421;0.0485;0.01003;0.00247;1.46;350
2838;421;0.0485;0.01003;0.00247;1.46;350
2840;421;0.0485;0.01001;0.00249;1.46;350
2842;421;0.0485;0.01001;0.00248;1.46;350
2844;421;0.0485;0.01005;0.00246;1.46;350
2846;421;0.0485;0.01004;0.00247;1.46;350
2848;421;0.0485;0.01003;0.00248;1.46;350
2850;421;0.0485;0.01003;0.00248;1.46;350
2852;421;0.0485;0.01005;0.00246;1.46;350
2854;421;0.0485;0.01003;0.00247;1.46;350
2856;421;0.0485;0.01002;0.00249;1.46;350
2858;421;0.0485;0.01004;0.00247;1.46;350
2860;421;0.0485;0.01004;0.00247;1.46;350
2862;421;0.0485;0.01001;0.00249;1.46;350
2864;420;0.0485;0.01002;0.00248;1.46;350
2866;420;0.0485;0.01004;0.00247;1.45;350
2868;420;0.0485;0.01001;0.00249;1.46;350
2870;420;0.0485;0.00999;0.00251;1.45;350
2872;420;0.0485;0.01003;0.00248;1.45;350
2874;420;0.0485;0.01003;0.00248;1.45;350
2876;420;0.0485;0.01001;0.0025;1.45;350
2878;420;0.0485;0.01002;0.00249;1.45;350
2880;420;0.0485;0.01005;0.00247;1.45;350
2882;420;0.0485;0.01001;0.0025;1.45;350
2884;420;0.0485;0.01003;0.00249;1.45;350
2886;420;0.0485;0.01004;0.00247;1.45;350
2888;420;0.0485;0.01003;0.00249;1.45;350
2890;420;0.0485;0.01004;0.00248;1.46;350
2892;420;0.0485;0.01005;0.00247;1.45;350
2894;420;0.0485;0.01003;0.00248;1.45;350
2896;420;0.0485;0.01005;0.00247;1.45;350
2898;420;0.0485;0.01004;0.00247;1.45;350
2900;420;0.0485;0.01005;0.00248;1.45;350
2902;420;0.0485;0.01006;0.00247;1.45;350
2904;420;0.0485;0.01004;0.00248;1.45;350
2906;420;0.0485;0.01004;0.00249;1.45;350
2908;419;0.0485;0.01005;0.00247;1.45;350
2910;420;0.0485;0.01003;0.00249;1.45;350
2912;419;0.0485;0.01003;0.00249;1.45;350
2914;419;0.0485;0.01005;0.00248;1.45;350
2916;419;0.0485;0.01003;0.00249;1.45;350
2918;419;0.0485;0.01001;0.00251;1.45;350
2920;419;0.0485;0.01004;0.00249;1.45;350
2922;419;0.0485;0.01002;0.0025;1.45;350
2924;419;0.0485;0.01001;0.0025;1.45;350
2926;419;0.0485;0.01004;0.00249;1.45;350
2928;419;0.0485;0.01002;0.0025;1.45;350
2930;419;0.0485;0.01002;0.00251;1.45;350
2932;419;0.0485;0.01003;0.0025;1.45;350
2934;419;0.0485;0.01000;0.00252;1.45;350
2936;419;0.0485;0.01000;0.00252;1.45;350
2938;419;0.0485;0.01002;0.0025;1.45;350
2940;419;0.0485;0.00998;0.00254;1.45;350
2942;419;0.0485;0.00999;0.00253;1.45;350
2944;419;0.0485;0.01000;0.00252;1.45;350
2946;419;0.0485;0.00998;0.00254;1.45;350
2948;419;0.0485;0.01001;0.00252;1.45;350
2950;419;0.0485;0.00999;0.00253;1.45;350
2952;419;0.0485;0.01000;0.00252;1.45;350
2954;419;0.0485;0.01002;0.0025;1.45;350
2956;419;0.0485;0.01000;0.00252;1.45;350
2958;419;0.0485;0.01003;0.00251;1.45;350
2960;419;0.0485;0.01003;0.00251;1.45;350
2962;418;0.0485;0.01002;0.00252;1.45;350
2964;418;0.0485;0.01004;0.0025;1.45;350
2966;418;0.0485;0.01001;0.00253;1.45;350
2968;418;0.0485;0.01003;0.00251;1.45;350
2970;418;0.0485;0.01002;0.00252;1.45;350
2972;418;0.0485;0.00999;0.00254;1.45;350
2974;418;0.0485;0.01003;0.00251;1.45;350
2976;418;0.0485;0.01000;0.00253;1.45;350
2978;418;0.0485;0.01001;0.00252;1.45;350
2980;418;0.0485;0.01001;0.00252;1.44;350
2982;418;0.0485;0.01001;0.00252;1.45;350
2984;418;0.0485;0.01005;0.00249;1.45;350
2986;418;0.0485;0.01003;0.00252;1.44;350
2988;418;0.0485;0.01005;0.0025;1.44;350
2990;418;0.0485;0.01005;0.0025;1.44;350
2992;418;0.0485;0.01006;0.0025;1.44;350
2994;418;0.0485;0.01008;0.00248;1.44;350
2996;418;0.0485;0.01004;0.0025;1.44;350
2998;417;0.0485;0.01007;0.00249;1.44;350
3000;417;0.0485;0.01003;0.00251;1.44;350
3002;417;0.0485;0.01006;0.00249;1.44;350
3004;417;0.0485;0.01003;0.00252;1.44;350
3006;417;0.0485;0.01003;0.00251;1.44;350
3008;417;0.0485;0.01002;0.00252;1.44;350
3010;417;0.0485;0.01002;0.00253;1.44;350
3012;417;0.0485;0.01003;0.00252;1.44;350
3014;417;0.0485;0.01000;0.00254;1.44;350
3016;417;0.0485;0.01004;0.00252;1.44;350
3018;417;0.0485;0.01002;0.00253;1.44;350
3020;417;0.0485;0.01001;0.00254;1.44;350
3022;417;0.0485;0.01002;0.00253;1.44;350
3024;417;0.0485;0.01000;0.00255;1.44;350
3026;417;0.0485;0.01004;0.00252;1.44;434
3028;417;0.0485;0.01000;0.00254;1.44;490
3030;417;0.0485;0.01003;0.00252;1.44;490
3032;416;0.0485;0.01001;0.00254;1.44;490
3034;416;0.0485;0.01002;0.00253;1.43;490
3036;416;0.0485;0.01002;0.00253;1.43;406
3038;416;0.0485;0.01001;0.00254;1.44;350
3040;416;0.0485;0.01004;0.00252;1.43;350
3042;416;0.0485;0.01001;0.00254;1.44;350
3044;416;0.0485;0.01005;0.00252;1.44;350
3046;416;0.0485;0.01002;0.00254;1.43;350
3048;416;0.0485;0.01004;0.00252;1.44;350
3050;416;0.0485;0.01003;0.00253;1.43;350
3052;416;0.0485;0.01004;0.00253;1.43;350
3054;416;0.0485;0.01006;0.00251;1.43;350
3056;416;0.0485;0.01003;0.00253;1.43;350
3058;416;0.0485;0.01004;0.00252;1.43;350
3060;416;0.0485;0.01004;0.00252;1.43;350
3062;416;0.0485;0.01004;0.00252;1.43;350
3064;416;0.0485;0.01004;0.00252;1.43;350
3066;416;0.0485;0.01004;0.00252;1.43;350
3068;416;0.0485;0.01004;0.00252;1.43;350
3070;415;0.0485;0.01004;0.00252;1.43;350
3072;415;0.0485;0.01005;0.00252;1.43;350
3074;415;0.0485;0.01005;0.00252;1.43;350
3076;415;0.0485;0.01005;0.00252;1.43;350
3078;415;0.0485;0.01005;0.00252;1.43;350
3080;415;0.0485;0.01005;0.00252;1.43;350
3082;415;0.0485;0.01005;0.00252;1.43;350
3084;415;0.0485;0.01005;0.00252;1.43;350
3086;415;0.0485;0.01005;0.00252;1.42;350
3088;415;0.0485;0.01005;0.00252;1.43;350
3090;415;0.0485;0.01005;0.00252;1.43;350
3092;415;0.0485;0.01005;0.00252;1.42;350
3094;415;0.0485;0.01005;0.00252;1.42;350
3096;415;0.0485;0.01005;0.00252;1.43;350
3098;415;0.0485;0.01005;0.00252;1.43;350
3100;415;0.0485;0.01006;0.00252;1.42;350
3102;415;0.0485;0.01006;0.00252;1.42;350
3104;415;0.0485;0.01006;0.00252;1.42;350
3106;415;0.0485;0.01006;0.00252;1.42;350
3108;415;0.0485;0.01006;0.00252;1.42;350
3110;415;0.0485;0.01006;0.00252;1.42;350
3112;414;0.0485;0.01006;0.00252;1.42;350
3114;414;0.0485;0.01006;0.00252;1.42;350
3116;414;0.0485;0.01006;0.00252;1.42;350
3118;414;0.0485;0.01006;0.00252;1.42;350
3120;414;0.0485;0.01006;0.00252;1.42;350
3122;414;0.0485;0.01006;0.00252;1.42;350
3124;414;0.0485;0.01006;0.00252;1.42;350
3126;414;0.0485;0.01006;0.00252;1.42;350
3128;414;0.0485;0.01006;0.00252;1.42;350
3130;414;0.0485;0.01007;0.00252;1.42;350
3132;414;0.0485;0.01007;0.00252;1.42;350
3134;414;0.0485;0.01007;0.00252;1.42;350
3136;414;0.0485;0.01007;0.00252;1.42;378
3138;414;0.0485;0.01007;0.00252;1.42;490
3140;414;0.0485;0.01007;0.00252;1.42;490
3142;414;0.0485;0.01007;0.00252;1.42;490
3144;414;0.0485;0.01007;0.00252;1.42;490
3146;414;0.0485;0.01007;0.00252;1.42;476
3148;414;0.0485;0.01007;0.00252;1.41;350
3150;414;0.0485;0.01007;0.00252;1.42;350
3152;414;0.0485;0.01007;0.00252;1.41;350
3154;414;0.0485;0.01007;0.00252;1.42;350
3156;414;0.0485;0.01007;0.00252;1.42;350
3158;414;0.0485;0.01008;0.00252;1.42;350
3160;414;0.0485;0.01008;0.00252;1.42;350
3162;414;0.0485;0.01008;0.00252;1.42;350
3164;414;0.0485;0.01008;0.00252;1.42;350
3166;414;0.0485;0.01008;0.00252;1.41;350
3168;414;0.0485;0.01008;0.00252;1.41;350
3170;414;0.0485;0.01008;0.00252;1.41;350
3172;414;0.0485;0.01008;0.00252;1.41;350
3174;413;0.0485;0.01008;0.00252;1.41;350
3176;414;0.0485;0.01008;0.00252;1.41;350
3178;413;0.0485;0.01008;0.00252;1.41;350
3180;413;0.0485;0.01008;0.00252;1.41;350
3182;413;0.0485;0.01008;0.00252;1.41;350
3184;413;0.0485;0.01008;0.00252;1.41;350
3186;413;0.0485;0.01009;0.00252;1.41;350
3188;413;0.0485;0.01009;0.00252;1.41;350
3190;413;0.0485;0.01009;0.00252;1.41;350
3192;413;0.0485;0.01009;0.00252;1.41;350
3194;413;0.0485;0.01009;0.00252;1.41;350
3196;413;0.0485;0.01009;0.00252;1.41;350
3198;413;0.0485;0.01009;0.00252;1.41;350
3200;413;0.0485;0.01009;0.00252;1.41;350
3202;413;0.0485;0.01009;0.00252;1.41;350
3204;413;0.0485;0.01009;0.00252;1.4;350
3206;413;0.0485;0.01009;0.00252;1.41;350
3208;413;0.0485;0.01009;0.00252;1.41;350
3210;413;0.0485;0.01009;0.00252;1.4;350
3212;413;0.0485;0.01009;0.00252;1.4;350
3214;413;0.0485;0.01010;0.00252;1.4;350
3216;413;0.0485;0.01010;0.00252;1.4;350
3218;413;0.0485;0.01010;0.00252;1.4;350
3220;413;0.0485;0.01010;0.00252;1.4;350
3222;413;0.0485;0.01010;0.00252;1.4;350
3224;412;0.0485;0.01010;0.00252;1.41;350
3226;412;0.0485;0.01010;0.00252;1.4;420
3228;413;0.0485;0.01010;0.00252;1.4;490
3230;413;0.0485;0.01010;0.00252;1.4;490
3232;412;0.0485;0.01010;0.00252;1.4;490
3234;413;0.0485;0.01010;0.00252;1.4;490
3236;412;0.0485;0.01010;0.00252;1.4;420
3238;412;0.0485;0.01010;0.00252;1.4;350
3240;412;0.0485;0.01010;0.00252;1.4;350
3242;412;0.0485;0.01010;0.00252;1.4;350
3244;412;0.0485;0.01011;0.00252;1.4;350
3246;412;0.0485;0.01011;0.00252;1.4;350
3248;412;0.0485;0.01011;0.00252;1.4;350
3250;412;0.0485;0.01011;0.00252;1.4;350
3252;412;0.0485;0.01011;0.00252;1.4;350
3254;412;0.0485;0.01011;0.00252;1.4;350
3256;412;0.0485;0.01011;0.00252;1.4;350
3258;412;0.0485;0.01011;0.00252;1.4;350
3260;412;0.0485;0.01011;0.00252;1.4;350
3262;412;0.0485;0.01011;0.00252;1.4;350
3264;412;0.0485;0.01011;0.00252;1.4;350
3266;412;0.0485;0.01011;0.00252;1.4;350
3268;412;0.0485;0.01011;0.00252;1.4;350
3270;412;0.0485;0.01011;0.00252;1.39;350
3272;412;0.0485;0.01012;0.00252;1.4;350
3274;412;0.0485;0.01012;0.00252;1.39;350
3276;412;0.0485;0.01012;0.00252;1.4;350
3278;412;0.0485;0.01012;0.00252;1.4;350
3280;412;0.0485;0.01012;0.00252;1.4;350
3282;412;0.0485;0.01012;0.00252;1.39;350
3284;412;0.0485;0.01012;0.00252;1.39;350
3286;412;0.0485;0.01012;0.00252;1.39;350
3288;412;0.0485;0.01012;0.00252;1.39;350
3290;412;0.0485;0.01012;0.00252;1.39;350
3292;412;0.0485;0.01012;0.00252;1.39;350
3294;412;0.0485;0.01012;0.00252;1.39;350
3296;412;0.0485;0.01012;0.00252;1.39;350
3298;412;0.0485;0.01012;0.00252;1.39;350
3300;412;0.0485;0.01013;0.00252;1.39;350
3302;412;0.0485;0.01013;0.00252;1.39;350
3304;412;0.0485;0.01013;0.00252;1.39;350
3306;412;0.0485;0.01013;0.00252;1.39;350
3308;412;0.0485;0.01013;0.00252;1.39;350
3310;412;0.0485;0.01013;0.00252;1.39;490
3312;412;0.0485;0.01013;0.00252;1.39;490
3314;412;0.0485;0.01013;0.00252;1.39;490
3316;412;0.0485;0.01013;0.00252;1.39;490
3318;412;0.0485;0.01013;0.00252;1.39;490
3320;412;0.0485;0.01013;0.00252;1.39;350
3322;412;0.0485;0.01013;0.00252;1.39;350
3324;412;0.0485;0.01013;0.00252;1.39;350
3326;412;0.0485;0.01013;0.00252;1.39;350
3328;412;0.0485;0.01013;0.00252;1.38;350
3330;412;0.0485;0.01014;0.00252;1.39;350
3332;412;0.0485;0.01014;0.00252;1.39;350
3334;412;0.0485;0.01014;0.00252;1.39;350
3336;412;0.0485;0.01014;0.00252;1.39;350
3338;412;0.0485;0.01014;0.00252;1.38;350
3340;412;0.0485;0.01014;0.00252;1.39;350
3342;412;0.0485;0.01014;0.00252;1.38;350
3344;412;0.0485;0.01014;0.00252;1.39;350
3346;412;0.0485;0.01014;0.00252;1.38;350
3348;412;0.0485;0.01014;0.00252;1.39;350
3350;412;0.0485;0.01014;0.00252;1.39;350
3352;412;0.0485;0.01014;0.00252;1.38;350
3354;412;0.0485;0.01014;0.00252;1.38;350
3356;412;0.0485;0.01014;0.00252;1.38;350
3358;411;0.0485;0.01015;0.00252;1.38;350
3360;412;0.0485;0.01015;0.00252;1.38;350
3362;411;0.0485;0.01015;0.00252;1.38;350
3364;412;0.0485;0.01015;0.00252;1.38;350
3366;412;0.0485;0.01015;0.00252;1.38;350
3368;412;0.0485;0.01015;0.00252;1.38;350
3370;411;0.0485;0.01015;0.00252;1.38;350
3372;411;0.0485;0.01015;0.00252;1.38;350
3374;411;0.0485;0.01015;0.00252;1.38;350
3376;411;0.0485;0.01015;0.00252;1.38;350
3378;411;0.0485;0.01015;0.00252;1.38;350
3380;411;0.0485;0.01015;0.00252;1.38;350
3382;411;0.0485;0.01015;0.00252;1.38;350
3384;411;0.0485;0.01015;0.00252;1.38;350
3386;411;0.0485;0.01016;0.00252;1.38;350
3388;411;0.0485;0.01016;0.00252;1.38;350
3390;411;0.0485;0.01016;0.00252;1.38;350
3392;411;0.0485;0.01016;0.00252;1.38;350
3394;411;0.0485;0.01016;0.00252;1.37;476
3396;411;0.0485;0.01016;0.00252;1.38;490
3398;411;0.0485;0.01016;0.00252;1.38;490
3400;411;0.0485;0.01016;0.00252;1.38;490
3402;411;0.0485;0.01016;0.00252;1.37;490
3404;411;0.0485;0.01016;0.00252;1.37;350
3406;411;0.0485;0.01016;0.00252;1.38;350
3408;411;0.0485;0.01016;0.00252;1.38;350
3410;411;0.0485;0.01016;0.00252;1.37;350
3412;411;0.0485;0.01016;0.00252;1.37;350
3414;411;0.0485;0.01016;0.00252;1.37;350
3416;411;0.0485;0.01017;0.00252;1.38;350
3418;411;0.0485;0.01017;0.00252;1.37;350
3420;411;0.0485;0.01017;0.00252;1.37;350
3422;411;0.0485;0.01017;0.00252;1.37;350
3424;411;0.0485;0.01017;0.00252;1.37;350
3426;411;0.0485;0.01017;0.00252;1.37;350
3428;411;0.0485;0.01017;0.00252;1.37;350
3430;411;0.0485;0.01017;0.00252;1.37;350
3432;411;0.0485;0.01017;0.002522;1.37;350
3434;411;0.0485;0.01017;0.00252;1.37;350
3436;411;0.0485;0.01017;0.002518;1.37;350
3438;411;0.0485;0.01017;0.002516;1.37;350
3440;411;0.0485;0.01017;0.002514;1.37;350
3442;411;0.0485;0.01017;0.002512;1.37;350
3444;411;0.0485;0.01018;0.00251;1.37;350
3446;411;0.0485;0.01018;0.002508;1.37;350
3448;411;0.0485;0.01018;0.002506;1.37;350
3450;411;0.0485;0.01018;0.002504;1.36;350
3452;411;0.0485;0.01018;0.002502;1.36;350
3454;411;0.0485;0.01018;0.0025;1.36;350
3456;411;0.0485;0.01018;0.002498;1.36;350
3458;411;0.0485;0.01018;0.002496;1.36;350
3460;411;0.0485;0.01018;0.002494;1.36;350
3462;411;0.0485;0.01017;0.002492;1.36;350
3464;411;0.0485;0.01017;0.00249;1.36;350
3466;411;0.0485;0.01018;0.002489;1.36;350
3468;411;0.0485;0.01018;0.002488;1.36;350
3470;411;0.0485;0.01018;0.002487;1.36;350
3472;411;0.0485;0.01018;0.002486;1.36;350
3474;411;0.0485;0.01019;0.002485;1.36;350
3476;411;0.0485;0.01019;0.002484;1.36;350
3478;411;0.0485;0.01019;0.002483;1.36;350
3480;411;0.0485;0.01019;0.002482;1.36;350
3482;411;0.0485;0.01020;0.002481;1.36;350
3484;411;0.0485;0.01020;0.00248;1.36;350
3486;411;0.0485;0.01020;0.002479;1.36;406
3488;411;0.0485;0.01020;0.002478;1.36;490
3490;411;0.0485;0.01021;0.002477;1.36;490
3492;411;0.0485;0.01021;0.002476;1.36;490
3494;411;0.0485;0.01021;0.002475;1.36;490
3496;411;0.0485;0.01022;0.002474;1.36;434
3498;411;0.0485;0.01022;0.002473;1.36;350
3500;411;0.0485;0.01022;0.002472;1.36;350
3502;411;0.0485;0.01022;0.002471;1.36;350
3504;411;0.0485;0.01023;0.00247;1.36;350
3506;411;0.0485;0.01023;0.002469;1.35;350
3508;411;0.0485;0.01023;0.002468;1.35;350
3510;411;0.0485;0.01023;0.002467;1.36;350
3512;411;0.0485;0.01024;0.002466;1.36;350
3514;411;0.0485;0.01024;0.002465;1.36;350
3516;411;0.0485;0.01024;0.002464;1.36;350
3518;411;0.0485;0.01025;0.002463;1.36;350
3520;411;0.0485;0.01025;0.002462;1.35;350
3522;411;0.0485;0.01025;0.002461;1.36;350
3524;411;0.0485;0.01025;0.00246;1.35;350
3526;411;0.0485;0.01026;0.002459;1.35;350
3528;411;0.0485;0.01026;0.002458;1.35;350
3530;411;0.0485;0.01026;0.002457;1.35;350
3532;411;0.0485;0.01026;0.002456;1.35;350
3534;411;0.0485;0.01027;0.002455;1.35;350
3536;411;0.0485;0.01027;0.002454;1.35;350
3538;411;0.0485;0.01027;0.002453;1.35;350
3540;412;0.0485;0.01028;0.002452;1.35;350
3542;412;0.0485;0.01028;0.002451;1.35;350
3544;412;0.0485;0.01028;0.00245;1.35;350
3546;412;0.0485;0.01028;0.002449;1.35;350
3548;412;0.0485;0.01029;0.002448;1.35;350
3550;412;0.0485;0.01029;0.002447;1.35;350
3552;412;0.0485;0.01029;0.002446;1.35;350
3554;412;0.0485;0.01029;0.002445;1.35;350
3556;412;0.0485;0.01030;0.002444;1.35;350
3558;412;0.0485;0.01030;0.002443;1.35;350
3560;412;0.0485;0.01030;0.002442;1.35;350
3562;412;0.0485;0.01030;0.002441;1.35;350
3564;412;0.0485;0.01031;0.00244;1.35;350
3566;413;0.0485;0.01031;0.002439;1.35;350
3568;413;0.0485;0.01031;0.002438;1.35;350
3570;413;0.0485;0.01032;0.002437;1.34;350
3572;413;0.0485;0.01032;0.002436;1.35;350
3574;413;0.0485;0.01032;0.002435;1.34;350
3576;413;0.0485;0.01032;0.002434;1.35;350
3578;413;0.0485;0.01033;0.002433;1.34;350
3580;413;0.0485;0.01033;0.002432;1.35;448
3582;412;0.0485;0.01033;0.002431;1.34;490
3584;413;0.0485;0.01033;0.00243;1.34;490
3586;413;0.0485;0.01034;0.002429;1.34;490
3588;413;0.0485;0.01034;0.002428;1.34;490
3590;413;0.0485;0.01034;0.002427;1.34;378
3592;413;0.0485;0.01035;0.002426;1.34;350
3594;414;0.0485;0.01035;0.002425;1.34;350
3596;414;0.0485;0.01035;0.002424;1.34;350
3598;414;0.0485;0.01035;0.002423;1.34;350
3600;414;0.0485;0.01036;0.002422;1.34;350
3602;414;0.0485;0.01036;0.002421;1.34;350
3604;413;0.0485;0.01036;0.00242;1.34;350
3606;413;0.0485;0.01036;0.002419;1.34;350
3608;413;0.0485;0.01037;0.002418;1.34;350
3610;414;0.0485;0.01037;0.002417;1.34;350
3612;413;0.0485;0.01037;0.002416;1.34;350
3614;413;0.0485;0.01037;0.002415;1.34;350
3616;413;0.0485;0.01038;0.002414;1.34;350
3618;413;0.0485;0.01038;0.002413;1.34;350
3620;414;0.0485;0.01038;0.002412;1.33;350
3622;414;0.0485;0.01039;0.002411;1.34;350
3624;414;0.0485;0.01039;0.00241;1.33;350
3626;414;0.0485;0.01039;0.002409;1.33;350
3628;414;0.0485;0.01039;0.002408;1.33;350
3630;414;0.0485;0.01040;0.002407;1.33;350
3632;414;0.0485;0.01040;0.002406;1.33;350
3634;414;0.0485;0.01040;0.002405;1.34;350
3636;414;0.0485;0.01040;0.002404;1.33;350
3638;414;0.0485;0.01041;0.002403;1.34;350
3640;414;0.0485;0.01041;0.002402;1.33;350
3642;414;0.0485;0.01041;0.002401;1.33;350
3644;414;0.0485;0.01042;0.0024;1.33;350
3646;414;0.0485;0.01042;0.002399;1.33;350
3648;415;0.0485;0.01042;0.002398;1.33;350
3650;415;0.0485;0.01042;0.002397;1.33;350
3652;415;0.0485;0.01043;0.002396;1.33;350
3654;415;0.0485;0.01043;0.002395;1.33;350
3656;415;0.0485;0.01043;0.002394;1.33;350
3658;415;0.0485;0.01043;0.002393;1.33;350
3660;415;0.0485;0.01044;0.002392;1.32;350
3662;415;0.0485;0.01044;0.002391;1.33;350
3664;415;0.0485;0.01044;0.00239;1.33;350
3666;414;0.0485;0.01045;0.002389;1.33;350
3668;414;0.0485;0.01045;0.002388;1.33;350
3670;414;0.0485;0.01045;0.002387;1.32;350
3672;414;0.0485;0.01045;0.002386;1.32;350
3674;415;0.0485;0.01046;0.002385;1.32;350
3676;415;0.0485;0.01046;0.002384;1.32;350
3678;415;0.0485;0.01046;0.002383;1.32;350
3680;415;0.0485;0.01046;0.002382;1.32;350
3682;415;0.0485;0.01047;0.002381;1.32;406
3684;415;0.0485;0.01047;0.00238;1.32;490
3686;415;0.0485;0.01047;0.002379;1.32;490
3688;415;0.0485;0.01047;0.002378;1.32;490
3690;415;0.0485;0.01048;0.002377;1.32;490
3692;415;0.0485;0.01048;0.002376;1.32;420
3694;415;0.0485;0.01048;0.002375;1.32;350
3696;415;0.0485;0.01049;0.002374;1.32;350
3698;415;0.0485;0.01049;0.002373;1.32;350
3700;415;0.0485;0.01049;0.002372;1.32;350
3702;416;0.0485;0.01049;0.002371;1.31;350
3704;416;0.0485;0.01050;0.00237;1.32;350
3706;416;0.0485;0.01050;0.002369;1.31;350
3708;416;0.0485;0.01050;0.002368;1.31;350
3710;416;0.0485;0.01050;0.002367;1.31;350
3712;416;0.0485;0.01051;0.002366;1.31;350
3714;416;0.0485;0.01051;0.002365;1.31;350
3716;416;0.0485;0.01051;0.002364;1.31;350
3718;416;0.0485;0.01052;0.002363;1.31;350
3720;416;0.0485;0.01052;0.002362;1.31;350
3722;415;0.0485;0.01052;0.002361;1.31;350
3724;415;0.0485;0.01052;0.00236;1.31;350
3726;415;0.0485;0.01053;0.002359;1.31;350
3728;416;0.0485;0.01053;0.002358;1.31;350
3730;416;0.0485;0.01053;0.002357;1.31;350
3732;416;0.0485;0.01053;0.002356;1.31;350
3734;416;0.0485;0.01054;0.002355;1.31;350
3736;416;0.0485;0.01054;0.002354;1.3;350
3738;416;0.0485;0.01054;0.002353;1.3;350
3740;416;0.0485;0.01054;0.002352;1.31;350
3742;416;0.0485;0.01055;0.002351;1.3;350
3744;416;0.0485;0.01055;0.00235;1.3;350
3746;416;0.0485;0.01055;0.002349;1.3;350
3748;416;0.0485;0.01056;0.002348;1.3;350
3750;416;0.0485;0.01056;0.002347;1.3;350
3752;416;0.0485;0.01056;0.002346;1.3;350
3754;416;0.0485;0.01056;0.002345;1.3;350
3756;417;0.0485;0.01057;0.002344;1.3;350
3758;417;0.0485;0.01057;0.002343;1.3;350
3760;417;0.0485;0.01057;0.002342;1.3;350
3762;417;0.0485;0.01057;0.002341;1.3;350
3764;417;0.0485;0.01058;0.00234;1.3;350
3766;417;0.0485;0.01058;0.002339;1.3;350
3768;417;0.0485;0.01058;0.002338;1.3;350
3770;417;0.0485;0.01059;0.002337;1.3;350
3772;417;0.0485;0.01059;0.002336;1.3;350
3774;416;0.0485;0.01059;0.002335;1.3;350
3776;416;0.0485;0.01059;0.002334;1.3;420
3778;417;0.0485;0.01060;0.002333;1.3;490
3780;416;0.0485;0.01060;0.002332;1.3;490
3782;418;0.0485;0.01060;0.002331;1.3;490
3784;418;0.0485;0.01060;0.00233;1.29;490
3786;418;0.0485;0.01061;0.002329;1.29;420
3788;418;0.0485;0.01061;0.002328;1.29;350
3790;418;0.0485;0.01061;0.002327;1.29;350
3792;417;0.0485;0.01062;0.002326;1.29;350
3794;417;0.0485;0.01062;0.002325;1.29;350
3796;417;0.0485;0.01062;0.002324;1.29;350
3798;417;0.0485;0.01062;0.002323;1.29;350
3800;417;0.0485;0.01063;0.002322;1.29;350
3802;417;0.0485;0.01063;0.002321;1.29;350
3804;417;0.0485;0.01063;0.00232;1.29;350
3806;417;0.0485;0.01063;0.002319;1.29;350
3808;417;0.0485;0.01064;0.002318;1.29;350
3810;418;0.0485;0.01064;0.002317;1.28;350
3812;418;0.0485;0.01064;0.002316;1.29;350
3814;418;0.0485;0.01064;0.002315;1.28;350
3816;418;0.0485;0.01065;0.002314;1.28;350
3818;418;0.0485;0.01065;0.002313;1.28;350
3820;418;0.0485;0.01065;0.002312;1.28;350
3822;418;0.0485;0.01066;0.002311;1.28;350
3824;418;0.0485;0.01066;0.00231;1.28;350
3826;418;0.0485;0.01066;0.002309;1.28;350
3828;418;0.0485;0.01066;0.002308;1.28;350
3830;418;0.0485;0.01067;0.002307;1.28;350
3832;418;0.0485;0.01067;0.002306;1.28;350
3834;418;0.0485;0.01067;0.002305;1.28;350
3836;419;0.0485;0.01067;0.002304;1.28;350
3838;419;0.0485;0.01068;0.002303;1.28;350
3840;419;0.0485;0.01068;0.002302;1.28;350
3842;419;0.0485;0.01068;0.002301;1.28;350
3844;419;0.0485;0.01069;0.0023;1.28;350
3846;419;0.0485;0.01069;0.002299;1.28;350
3848;419;0.0485;0.01069;0.002298;1.28;350
3850;419;0.0485;0.01069;0.002297;1.28;350
3852;419;0.0485;0.01070;0.002296;1.28;350
3854;419;0.0485;0.01070;0.002295;1.27;350
3856;419;0.0485;0.01070;0.002294;1.27;350
3858;419;0.0485;0.01070;0.002293;1.27;350
3860;418;0.0485;0.01071;0.002292;1.27;350
3862;418;0.0485;0.01071;0.002291;1.27;350
3864;419;0.0485;0.01071;0.00229;1.27;350
3866;419;0.0485;0.01072;0.002289;1.27;350
3868;419;0.0485;0.01072;0.002288;1.28;350
3870;419;0.0485;0.01072;0.002287;1.27;448
3872;419;0.0485;0.01072;0.002286;1.27;490
3874;419;0.0485;0.01073;0.002285;1.27;490
3876;419;0.0485;0.01073;0.002284;1.27;490
3878;419;0.0485;0.01073;0.002283;1.27;490
3880;419;0.0485;0.01073;0.002282;1.26;378
3882;419;0.0485;0.01074;0.002281;1.26;350
3884;419;0.0485;0.01074;0.00228;1.26;350
3886;419;0.0485;0.01074;0.002279;1.26;350
3888;419;0.0485;0.01074;0.002278;1.26;350
3890;420;0.0485;0.01075;0.002277;1.26;350
3892;420;0.0485;0.01075;0.002276;1.26;350
3894;420;0.0485;0.01075;0.002275;1.26;350
3896;420;0.0485;0.01076;0.002274;1.26;350
3898;420;0.0485;0.01076;0.002273;1.26;350
3900;420;0.0485;0.01076;0.002272;1.26;350
3902;420;0.0485;0.01076;0.002271;1.26;350
3904;420;0.0485;0.01077;0.00227;1.26;350
3906;420;0.0485;0.01077;0.002269;1.26;350
3908;420;0.0485;0.01077;0.002268;1.26;350
3910;420;0.0485;0.01077;0.002267;1.26;350
3912;420;0.0485;0.01078;0.002266;1.25;350
3914;420;0.0485;0.01078;0.002265;1.26;350
3916;420;0.0485;0.01078;0.002264;1.25;350
3918;421;0.0485;0.01079;0.002263;1.26;350
3920;420;0.0485;0.01079;0.002262;1.26;350
3922;421;0.0485;0.01079;0.002261;1.25;350
3924;421;0.0485;0.01079;0.00226;1.25;350
3926;421;0.0485;0.01080;0.002259;1.25;350
3928;421;0.0485;0.01080;0.002258;1.25;350
3930;421;0.0485;0.01080;0.002257;1.25;350
3932;421;0.0485;0.01080;0.002256;1.25;350
3934;420;0.0485;0.01081;0.002255;1.25;350
3936;420;0.0485;0.01081;0.002254;1.25;350
3938;420;0.0485;0.01081;0.002253;1.25;350
3940;420;0.0485;0.01081;0.002252;1.25;350
3942;420;0.0485;0.01082;0.002251;1.25;350
3944;421;0.0485;0.01082;0.00225;1.25;350
3946;421;0.0485;0.01082;0.002249;1.25;350
3948;421;0.0485;0.01083;0.002248;1.24;350
3950;422;0.0485;0.01083;0.002247;1.25;350
3952;421;0.0485;0.01083;0.002246;1.25;378
3954;421;0.0485;0.01083;0.002245;1.24;490
3956;421;0.0485;0.01084;0.002244;1.25;490
3958;421;0.0485;0.01084;0.002243;1.24;490
3960;421;0.0485;0.01084;0.002242;1.25;490
3962;421;0.0485;0.01084;0.002241;1.24;462
3964;421;0.0485;0.01085;0.00224;1.24;350
3966;421;0.0485;0.01085;0.002239;1.24;350
3968;421;0.0485;0.01085;0.002238;1.24;350
3970;421;0.0485;0.01086;0.002237;1.24;350
3972;422;0.0485;0.01086;0.002236;1.24;350
3974;422;0.0485;0.01086;0.002235;1.24;350
3976;422;0.0485;0.01086;0.002234;1.24;350
3978;422;0.0485;0.01087;0.002233;1.24;350
3980;422;0.0485;0.01087;0.002232;1.24;350
3982;422;0.0485;0.01087;0.002231;1.24;350
3984;422;0.0485;0.01087;0.00223;1.24;350
3986;422;0.0485;0.01088;0.002229;1.24;350
3988;422;0.0485;0.01088;0.002228;1.24;350
3990;422;0.0485;0.01088;0.002227;1.24;350
3992;422;0.0485;0.01089;0.002226;1.24;350
3994;422;0.0485;0.01089;0.002225;1.24;350
3996;422;0.0485;0.01089;0.002224;1.24;350
3998;422;0.0485;0.01089;0.002223;1.24;350
4000;423;0.0485;0.01090;0.002222;1.23;350
4002;423;0.0485;0.01090;0.002221;1.24;350
4004;423;0.0485;0.01090;0.00222;1.24;350
4006;423;0.0485;0.01090;0.002219;1.23;350
4008;423;0.0485;0.01091;0.002218;1.23;350
4010;423;0.0485;0.01091;0.002217;1.24;350
4012;423;0.0485;0.01091;0.002216;1.23;350
4014;423;0.0485;0.01091;0.002215;1.23;350
4016;423;0.0485;0.01092;0.002214;1.23;350
4018;424;0.0485;0.01092;0.002213;1.23;350
4020;424;0.0485;0.01092;0.002212;1.23;350
4022;424;0.0485;0.01093;0.002211;1.23;350
4024;424;0.0485;0.01093;0.00221;1.23;350
4026;425;0.0485;0.01093;0.002209;1.23;420
4028;425;0.0485;0.01093;0.002208;1.23;490
4030;425;0.0485;0.01094;0.002207;1.22;490
4032;425;0.0485;0.01094;0.002206;1.23;490
4034;425;0.0485;0.01094;0.002205;1.23;490
4036;425;0.0485;0.01094;0.002204;1.23;420
4038;425;0.0485;0.01095;0.002203;1.23;350
4040;425;0.0485;0.01095;0.002202;1.23;350
4042;425;0.0485;0.01095;0.002201;1.23;350
4044;425;0.0485;0.01096;0.0022;1.23;350
4046;425;0.0485;0.01096;0.002199;1.23;350
4048;425;0.0485;0.01096;0.002198;1.23;350
4050;425;0.0485;0.01096;0.002197;1.23;350
4052;425;0.0485;0.01097;0.002196;1.23;350
4054;426;0.0485;0.01097;0.002195;1.23;350
4056;426;0.0485;0.01097;0.002194;1.23;350
4058;426;0.0485;0.01097;0.002193;1.23;350
4060;426;0.0485;0.01098;0.002192;1.23;350
4062;426;0.0485;0.01098;0.002191;1.22;350
4064;426;0.0485;0.01098;0.00219;1.22;350
4066;427;0.0485;0.01098;0.002189;1.22;350
4068;427;0.0485;0.01099;0.002188;1.22;350
4070;427;0.0485;0.01099;0.002187;1.23;350
4072;426;0.0485;0.01099;0.002186;1.23;350
4074;427;0.0485;0.01100;0.002185;1.22;350
4076;427;0.0485;0.01100;0.002184;1.22;350
4078;427;0.0485;0.01100;0.002183;1.22;350
4080;428;0.0485;0.01100;0.002182;1.22;350
4082;428;0.0485;0.01101;0.002181;1.22;350
4084;428;0.0485;0.01101;0.00218;1.22;350
4086;428;0.0485;0.01101;0.002179;1.22;350
4088;428;0.0485;0.01101;0.002178;1.22;350
4090;428;0.0485;0.01102;0.002177;1.23;350
4092;428;0.0485;0.01102;0.002176;1.22;350
4094;428;0.0485;0.01102;0.002175;1.23;462
4096;429;0.0485;0.01103;0.002174;1.22;490
4098;429;0.0485;0.01103;0.002173;1.22;490
4100;429;0.0485;0.01103;0.002172;1.22;490
4102;429;0.0485;0.01103;0.002171;1.22;490
4104;429;0.0485;0.01104;0.00217;1.22;378
4106;429;0.0485;0.01104;0.002169;1.23;350
4108;430;0.0485;0.01104;0.002168;1.22;350
4110;430;0.0485;0.01104;0.002167;1.23;350
4112;430;0.0485;0.01105;0.002166;1.22;350
4114;430;0.0485;0.01105;0.002165;1.22;350
4116;430;0.0485;0.01105;0.002164;1.22;350
4118;431;0.0485;0.01106;0.002163;1.22;350
4120;431;0.0485;0.01106;0.002162;1.22;350
4122;431;0.0485;0.01106;0.002161;1.22;350
4124;431;0.0485;0.01106;0.00216;1.22;350
4126;431;0.0485;0.01107;0.002159;1.22;350
4128;431;0.0485;0.01107;0.002158;1.22;350
4130;431;0.0485;0.01107;0.002157;1.22;350
4132;431;0.0485;0.01107;0.002156;1.23;350
4134;432;0.0485;0.01108;0.002155;1.23;350
4136;432;0.0485;0.01108;0.002154;1.23;350
4138;432;0.0485;0.01108;0.002153;1.22;350
4140;432;0.0485;0.01108;0.002152;1.23;350
4142;433;0.0485;0.01109;0.002151;1.23;350
4144;433;0.0485;0.01109;0.00215;1.23;350
4146;433;0.0485;0.01109;0.002149;1.23;350
4148;433;0.0485;0.01110;0.002148;1.22;350
4150;433;0.0485;0.01110;0.002147;1.23;350
4152;433;0.0485;0.01110;0.002146;1.23;350
4154;433;0.0485;0.01110;0.002145;1.22;350
4156;433;0.0485;0.01111;0.002144;1.23;420
4158;433;0.0485;0.01111;0.002143;1.22;490
4160;433;0.0485;0.01111;0.002142;1.23;490
4162;434;0.0485;0.01111;0.002141;1.22;490
4164;434;0.0485;0.01112;0.00214;1.22;490
4166;435;0.0485;0.01112;0.002139;1.23;420
4168;434;0.0485;0.01112;0.002138;1.23;350
4170;435;0.0485;0.01113;0.002137;1.22;350
4172;435;0.0485;0.01113;0.002136;1.23;350
4174;435;0.0485;0.01113;0.002135;1.22;350
4176;435;0.0485;0.01113;0.002134;1.23;350
4178;435;0.0485;0.01114;0.002133;1.22;350
4180;435;0.0485;0.01114;0.002132;1.23;350
4182;435;0.0485;0.01114;0.002131;1.23;350
4184;435;0.0485;0.01114;0.00213;1.23;350
4186;435;0.0485;0.01115;0.002129;1.23;350
4188;436;0.0485;0.01115;0.002128;1.22;350
4190;436;0.0485;0.01115;0.002127;1.23;350
4192;436;0.0485;0.01115;0.002126;1.22;350
4194;436;0.0485;0.01116;0.002125;1.23;350
4196;436;0.0485;0.01116;0.002124;1.22;350
4198;436;0.0485;0.01116;0.002123;1.22;350
4200;437;0.0485;0.01117;0.002122;1.23;350
4202;437;0.0485;0.01117;0.002121;1.23;350
4204;437;0.0485;0.01117;0.00212;1.23;350
4206;436;0.0485;0.01117;0.002119;1.23;350
4208;437;0.0485;0.01118;0.002118;1.22;364
4210;437;0.0485;0.01118;0.002117;1.23;490
4212;437;0.0485;0.01118;0.002116;1.23;490
4214;437;0.0485;0.01118;0.002115;1.23;490
4216;438;0.0485;0.01119;0.002114;1.22;490
4218;438;0.0485;0.01119;0.002113;1.23;476
4220;438;0.0485;0.01119;0.002112;1.23;350
4222;438;0.0485;0.01120;0.002111;1.23;350
4224;438;0.0485;0.01120;0.00211;1.23;350
4226;438;0.0485;0.01120;0.002109;1.22;350
4228;438;0.0485;0.01120;0.002108;1.23;350
4230;438;0.0485;0.01121;0.002107;1.22;350
4232;438;0.0485;0.01121;0.002106;1.22;350
4234;438;0.0485;0.01121;0.002105;1.23;350
4236;438;0.0485;0.01121;0.002104;1.22;350
4238;438;0.0485;0.01122;0.002103;1.23;350
4240;439;0.0485;0.01122;0.002102;1.22;350
4242;440;0.0485;0.01122;0.002101;1.22;350
4244;440;0.0485;0.01123;0.0021;1.23;350
4246;440;0.0485;0.01123;0.002099;1.22;350
4248;440;0.0485;0.01123;0.002098;1.23;350
4250;440;0.0485;0.01123;0.002097;1.22;350
4252;440;0.0485;0.01124;0.002096;1.22;350
4254;440;0.0485;0.01124;0.002095;1.23;350
4256;440;0.0485;0.01124;0.002094;1.22;350
4258;440;0.0485;0.01124;0.002093;1.22;350
4260;440;0.0485;0.01125;0.002092;1.23;350
4262;440;0.0485;0.01125;0.002091;1.23;350
4264;440;0.0485;0.01125;0.00209;1.22;434
4266;440;0.0485;0.01125;0.002089;1.22;490
4268;440;0.0485;0.01126;0.002088;1.22;490
4270;441;0.0485;0.01126;0.002087;1.22;490
4272;441;0.0485;0.01126;0.002086;1.22;490
4274;441;0.0485;0.01127;0.002085;1.23;406
4276;441;0.0485;0.01127;0.002084;1.22;350
4278;441;0.0485;0.01127;0.002083;1.22;350
4280;441;0.0485;0.01127;0.002082;1.22;350
4282;441;0.0485;0.01128;0.002081;1.22;350
4284;442;0.0485;0.01128;0.00208;1.22;350
4286;441;0.0485;0.01128;0.002079;1.22;350
4288;442;0.0485;0.01128;0.002078;1.22;350
4290;441;0.0485;0.01129;0.002077;1.23;350
4292;441;0.0485;0.01129;0.002076;1.22;350
4294;442;0.0485;0.01129;0.002075;1.22;350
4296;443;0.0485;0.01130;0.002074;1.22;350
4298;443;0.0485;0.01130;0.002073;1.22;350
4300;443;0.0485;0.01130;0.002072;1.22;350
4302;443;0.0485;0.01130;0.002071;1.22;350
4304;443;0.0485;0.01131;0.00207;1.22;350
4306;443;0.0485;0.01131;0.002069;1.22;350
4308;443;0.0485;0.01131;0.002068;1.23;350
4310;443;0.0485;0.01131;0.002067;1.22;350
4312;443;0.0485;0.01132;0.002066;1.22;350
4314;443;0.0485;0.01132;0.002065;1.22;434
4316;443;0.0485;0.01132;0.002064;1.22;490
4318;443;0.0485;0.01133;0.002063;1.22;490
4320;443;0.0485;0.01133;0.002062;1.22;490
4322;443;0.0485;0.01133;0.002061;1.22;490
4324;444;0.0485;0.01133;0.00206;1.23;406
4326;444;0.0485;0.01134;0.002059;1.22;350
4328;444;0.0485;0.01134;0.002058;1.22;350
4330;444;0.0485;0.01134;0.002057;1.22;350
4332;444;0.0485;0.01134;0.002056;1.23;350
4334;444;0.0485;0.01135;0.002055;1.23;350
4336;444;0.0485;0.01135;0.002054;1.22;350
4338;444;0.0485;0.01135;0.002053;1.22;350
4340;444;0.0485;0.01135;0.002052;1.23;350
4342;444;0.0485;0.01136;0.002051;1.22;350
4344;444;0.0485;0.01136;0.00205;1.23;350
4346;444;0.0485;0.01136;0.002049;1.22;350
4348;444;0.0485;0.01137;0.002048;1.22;350
4350;445;0.0485;0.01137;0.002047;1.22;350
4352;446;0.0485;0.01137;0.002046;1.22;350
4354;445;0.0485;0.01137;0.002045;1.22;350
4356;446;0.0485;0.01138;0.002044;1.22;350
4358;446;0.0485;0.01138;0.002043;1.22;350
4360;446;0.0485;0.01138;0.002042;1.22;350
4362;446;0.0485;0.01138;0.002041;1.22;350
4364;446;0.0485;0.01139;0.00204;1.22;476
4366;446;0.0485;0.01139;0.002039;1.22;490
4368;446;0.0485;0.01139;0.002038;1.22;490
4370;446;0.0485;0.01140;0.002037;1.22;490
4372;446;0.0485;0.01140;0.002036;1.22;490
4374;446;0.0485;0.01140;0.002035;1.22;350
4376;446;0.0485;0.01140;0.002034;1.22;350
4378;447;0.0485;0.01141;0.002033;1.22;350
4380;447;0.0485;0.01141;0.002032;1.22;350
4382;447;0.0485;0.01141;0.002031;1.22;350
4384;447;0.0485;0.01141;0.00203;1.22;350
4386;447;0.0485;0.01142;0.002029;1.22;350
4388;447;0.0485;0.01142;0.002028;1.22;350
4390;447;0.0485;0.01142;0.002027;1.22;350
4392;447;0.0485;0.01142;0.002026;1.22;350
4394;447;0.0485;0.01143;0.002025;1.22;350
4396;447;0.0485;0.01143;0.002024;1.22;350
4398;447;0.0485;0.01143;0.002023;1.23;350
4400;447;0.0485;0.01144;0.002022;1.22;350
4402;447;0.0485;0.01144;0.002021;1.22;350
4404;448;0.0485;0.01144;0.00202;1.22;350
4406;448;0.0485;0.01144;0.002019;1.22;350
4408;448;0.0485;0.01145;0.002018;1.22;350
4410;448;0.0485;0.01145;0.002017;1.22;462
4412;448;0.0485;0.01145;0.002016;1.22;490
4414;448;0.0485;0.01145;0.002015;1.22;490
4416;448;0.0485;0.01146;0.002014;1.22;490
4418;448;0.0485;0.01146;0.002013;1.22;490
4420;448;0.0485;0.01146;0.002012;1.22;364
4422;448;0.0485;0.01147;0.002011;1.22;350
4424;448;0.0485;0.01147;0.00201;1.22;350
4426;448;0.0485;0.01147;0.002009;1.22;350
4428;448;0.0485;0.01147;0.002008;1.22;350
4430;448;0.0485;0.01148;0.002007;1.22;350
4432;449;0.0485;0.01148;0.002006;1.23;350
4434;449;0.0485;0.01148;0.002005;1.22;350
4436;449;0.0485;0.01148;0.002004;1.22;350
4438;449;0.0485;0.01149;0.002003;1.22;350
4440;449;0.0485;0.01149;0.002002;1.22;350
4442;449;0.0485;0.01149;0.002001;1.22;350
4444;449;0.0485;0.01150;0.002;1.22;350
