Time [s];T_cat [gradC];n_h2 [mol/s];n_ch4 [mol/s];n_h2_res [mol/s];m_DE [kg/h];Pel [W]
0;446;0.0198;0.0047;0.000299;0.428;350
2;446;0.0198;0.0047;0.000299;0.428;350
4;446;0.0199;0.0047;0.000299;0.856;350
6;446;0.0199;0.0048;0.0003;0.845;350
8;447;0.02;0.0048;0.000301;0.86;350
10;447;0.0201;0.0048;0.000302;0.87;350
12;448;0.0201;0.0048;0.000303;0.869;350
14;448;0.0202;0.0048;0.000304;0.869;350
16;448;0.0202;0.0048;0.000305;0.872;350
18;449;0.0203;0.0049;0.000306;0.877;350
20;449;0.0204;0.0049;0.000306;0.884;350
22;449;0.0204;0.0049;0.000307;0.883;350
24;449;0.0205;0.0049;0.000308;0.889;350
26;450;0.0206;0.0049;0.000309;0.891;350
28;450;0.0206;0.0049;0.00031;0.892;350
30;449;0.0207;0.0050;0.000311;0.896;350
32;449;0.0207;0.0050;0.000312;0.894;350
34;449;0.0208;0.0050;0.000313;0.897;350
36;449;0.0209;0.0050;0.000314;0.895;350
38;449;0.0209;0.0050;0.000315;0.892;350
40;448;0.021;0.0050;0.000316;0.894;350
42;448;0.021;0.0051;0.000317;0.891;350
44;448;0.0211;0.0051;0.000318;0.891;350
46;448;0.0212;0.0051;0.000318;0.888;350
48;448;0.0212;0.0051;0.000319;0.883;350
50;447;0.0213;0.0051;0.00032;0.882;350
52;447;0.0214;0.0051;0.000321;0.879;350
54;447;0.0214;0.0052;0.000322;0.883;350
56;447;0.0215;0.0052;0.000323;0.882;350
58;447;0.0215;0.0052;0.000324;0.88;350
60;447;0.0216;0.0052;0.000325;0.882;350
62;447;0.0217;0.0052;0.000326;0.881;350
64;447;0.0217;0.0052;0.000327;0.885;350
66;447;0.0218;0.0053;0.000328;0.885;350
68;447;0.0218;0.0053;0.000328;0.884;350
70;447;0.0219;0.0053;0.000329;0.887;350
72;447;0.022;0.0053;0.00033;0.884;350
74;447;0.022;0.0053;0.000331;0.888;350
76;447;0.0221;0.0053;0.000332;0.885;350
78;447;0.0221;0.0053;0.000333;0.886;350
80;447;0.0222;0.0054;0.000334;0.892;350
82;447;0.0223;0.0054;0.000335;0.892;350
84;447;0.0223;0.0054;0.000336;0.896;350
86;447;0.0224;0.0054;0.000337;0.899;350
88;447;0.0225;0.0054;0.000338;0.899;350
90;447;0.0225;0.0055;0.000339;0.903;350
92;448;0.0226;0.0055;0.00034;0.902;350
94;448;0.0226;0.0055;0.00034;0.907;350
96;448;0.0227;0.0055;0.000341;0.908;350
98;448;0.0228;0.0055;0.000342;0.909;350
100;448;0.0228;0.0055;0.000343;0.912;350
102;448;0.0229;0.0056;0.000344;0.912;350
104;448;0.0229;0.0056;0.000345;0.916;350
106;449;0.023;0.0056;0.000346;0.917;350
108;449;0.0231;0.0056;0.000347;0.919;350
110;449;0.0231;0.0056;0.000348;0.924;350
112;449;0.0232;0.0056;0.000349;0.927;350
114;449;0.0233;0.0057;0.00035;0.932;350
116;450;0.0233;0.0057;0.00035;0.933;350
118;450;0.0234;0.0057;0.000351;0.935;350
120;450;0.0234;0.0057;0.000352;0.94;350
122;450;0.0235;0.0057;0.000353;0.94;350
124;450;0.0236;0.0057;0.000354;0.945;350
126;451;0.0236;0.0057;0.000355;0.945;350
128;451;0.0237;0.0058;0.000356;0.949;350
130;451;0.0237;0.0058;0.000357;0.955;350
132;451;0.0238;0.0058;0.000358;0.955;350
134;451;0.0239;0.0058;0.000359;0.96;350
136;452;0.0239;0.0058;0.00036;0.962;350
138;452;0.024;0.0058;0.000361;0.968;350
140;452;0.0241;0.0059;0.000361;0.972;350
142;452;0.0241;0.0059;0.000362;0.974;350
144;453;0.0242;0.0059;0.000363;0.979;350
146;453;0.0242;0.0059;0.000364;0.982;350
148;453;0.0243;0.0059;0.000365;0.985;350
150;453;0.0244;0.0059;0.000366;0.989;350
152;453;0.0244;0.0060;0.000367;0.991;350
154;454;0.0245;0.0060;0.000368;0.995;350
156;454;0.0245;0.0060;0.000369;0.995;350
158;454;0.0246;0.0060;0.00037;0.997;350
160;454;0.0247;0.0060;0.000371;1;350
162;454;0.0247;0.0060;0.000372;1;350
164;454;0.0248;0.0061;0.000372;1.01;350
166;454;0.0248;0.0061;0.000373;1.01;350
168;454;0.0249;0.0061;0.000374;1.01;350
170;454;0.025;0.0061;0.000375;1.02;350
172;454;0.025;0.0061;0.000376;1.01;350
174;455;0.0251;0.0061;0.000377;1.02;350
176;455;0.0252;0.0062;0.000378;1.02;350
178;455;0.0252;0.0062;0.000379;1.02;350
180;455;0.0253;0.0062;0.00038;1.03;350
182;455;0.0253;0.0062;0.000381;1.03;350
184;455;0.0254;0.0062;0.000382;1.03;350
186;455;0.0255;0.0062;0.000383;1.03;350
188;455;0.0255;0.0062;0.000383;1.04;350
190;455;0.0256;0.0063;0.000384;1.04;350
192;456;0.0257;0.0063;0.000385;1.04;350
194;456;0.0257;0.0063;0.000386;1.05;350
196;456;0.0258;0.0063;0.000387;1.05;350
198;456;0.0258;0.0063;0.000388;1.05;350
200;456;0.0259;0.0063;0.000389;1.06;350
202;456;0.026;0.0064;0.00039;1.06;350
204;457;0.026;0.0064;0.000391;1.06;350
206;457;0.0261;0.0064;0.000392;1.06;350
208;457;0.0261;0.0064;0.000393;1.07;350
210;457;0.0262;0.0064;0.000394;1.07;350
212;457;0.0263;0.0064;0.000394;1.07;350
214;457;0.0263;0.0065;0.000395;1.08;350
216;458;0.0264;0.0065;0.000396;1.08;350
218;458;0.0264;0.0065;0.000397;1.08;350
220;458;0.0265;0.0065;0.000398;1.08;350
222;458;0.0266;0.0065;0.000399;1.08;350
224;457;0.0266;0.0065;0.0004;1.09;350
226;457;0.0267;0.0066;0.000401;1.09;350
228;457;0.0268;0.0066;0.000402;1.09;350
230;457;0.0268;0.0066;0.000403;1.09;350
232;457;0.0269;0.0066;0.000404;1.09;350
234;456;0.0269;0.0066;0.000404;1.09;350
236;456;0.027;0.0066;0.000405;1.08;350
238;456;0.0271;0.0067;0.000406;1.08;350
240;455;0.0271;0.0067;0.000407;1.08;350
242;455;0.0272;0.0067;0.000408;1.08;350
244;454;0.0272;0.0067;0.000409;1.08;350
246;454;0.0273;0.0067;0.00041;1.07;350
248;453;0.0274;0.0067;0.000411;1.07;350
250;453;0.0274;0.0067;0.000412;1.06;350
252;452;0.0275;0.0068;0.000413;1.06;350
254;452;0.0275;0.0068;0.000414;1.06;350
256;452;0.0276;0.0068;0.000415;1.06;350
258;451;0.0277;0.0068;0.000415;1.06;350
260;451;0.0277;0.0068;0.000416;1.06;350
262;451;0.0278;0.0068;0.000417;1.05;350
264;451;0.0279;0.0069;0.000418;1.06;350
266;451;0.0279;0.0069;0.000419;1.05;350
268;450;0.028;0.0069;0.00042;1.06;350
270;450;0.028;0.0069;0.000421;1.05;350
272;450;0.0281;0.0069;0.000422;1.05;350
274;450;0.0282;0.0070;0.000423;1.06;350
276;450;0.0282;0.0070;0.000424;1.05;350
278;450;0.0283;0.0070;0.000425;1.06;350
280;450;0.0284;0.0070;0.000426;1.06;350
282;450;0.0284;0.0070;0.000426;1.06;350
284;450;0.0285;0.0070;0.000427;1.06;350
286;450;0.0285;0.0071;0.000428;1.06;350
288;450;0.0286;0.0071;0.000429;1.06;350
290;450;0.0287;0.0071;0.00043;1.06;350
292;450;0.0287;0.0071;0.000431;1.07;350
294;450;0.0288;0.0071;0.000432;1.07;350
296;450;0.0288;0.0071;0.000433;1.07;350
298;450;0.0289;0.0071;0.000434;1.07;350
300;450;0.029;0.0072;0.000435;1.07;350
302;450;0.029;0.0072;0.000436;1.08;350
304;450;0.0291;0.0072;0.000436;1.09;350
306;450;0.0291;0.0072;0.000437;1.09;350
308;451;0.0292;0.0072;0.000438;1.09;350
310;451;0.0293;0.0072;0.000439;1.09;350
312;451;0.0293;0.0073;0.00044;1.09;350
314;451;0.0294;0.0073;0.000441;1.1;350
316;451;0.0295;0.0073;0.000442;1.09;350
318;451;0.0295;0.0073;0.000443;1.1;350
320;451;0.0296;0.0073;0.000444;1.1;350
322;451;0.0296;0.0073;0.000445;1.1;350
324;452;0.0297;0.0074;0.000446;1.11;350
326;452;0.0298;0.0074;0.000446;1.11;350
328;452;0.0298;0.0074;0.000447;1.11;350
330;452;0.0299;0.0074;0.000448;1.11;350
332;452;0.0299;0.0074;0.000449;1.11;350
334;452;0.03;0.0074;0.00045;1.12;350
336;452;0.0301;0.0075;0.000451;1.12;350
338;452;0.0301;0.0075;0.000452;1.12;350
340;452;0.0302;0.0075;0.000453;1.12;350
342;452;0.0303;0.0075;0.000454;1.13;350
344;452;0.0303;0.0075;0.000455;1.13;350
346;452;0.0304;0.0075;0.000456;1.13;350
348;452;0.0304;0.0075;0.000457;1.13;350
350;452;0.0305;0.0076;0.000458;1.13;350
352;452;0.0306;0.0076;0.000458;1.14;350
354;452;0.0306;0.0076;0.000459;1.14;350
356;453;0.0307;0.0076;0.00046;1.14;350
358;453;0.0307;0.0076;0.000461;1.15;350
360;453;0.0308;0.0076;0.000462;1.14;350
362;453;0.0309;0.0077;0.000463;1.15;350
364;453;0.0309;0.0077;0.000464;1.15;350
366;453;0.031;0.0077;0.000465;1.15;350
368;453;0.0311;0.0077;0.000466;1.15;350
370;453;0.0311;0.0077;0.000467;1.15;350
372;453;0.0312;0.0077;0.000468;1.16;350
374;453;0.0312;0.0078;0.000468;1.16;350
376;453;0.0313;0.0078;0.000469;1.16;350
378;453;0.0314;0.0078;0.00047;1.17;350
380;453;0.0314;0.0078;0.000471;1.17;350
382;453;0.0315;0.0078;0.000472;1.17;350
384;453;0.0315;0.0078;0.000473;1.17;350
386;454;0.0316;0.0079;0.000474;1.18;350
388;454;0.0317;0.0079;0.000475;1.18;350
390;454;0.0317;0.0079;0.000476;1.18;350
392;454;0.0318;0.0079;0.000477;1.19;350
394;454;0.0318;0.0079;0.000478;1.19;350
396;454;0.0319;0.0079;0.000479;1.19;350
398;454;0.032;0.0080;0.000479;1.19;350
400;454;0.032;0.0080;0.00048;1.2;350
402;455;0.0321;0.0080;0.000481;1.2;350
404;455;0.0322;0.0080;0.000482;1.2;350
406;455;0.0322;0.0080;0.000483;1.2;350
408;455;0.0323;0.0080;0.000484;1.21;350
410;455;0.0323;0.0080;0.000485;1.21;350
412;455;0.0324;0.0081;0.000486;1.22;350
414;455;0.0325;0.0081;0.000487;1.22;350
416;456;0.0325;0.0081;0.000488;1.22;350
418;456;0.0326;0.0081;0.000488;1.23;350
420;456;0.0326;0.0081;0.000489;1.23;350
422;456;0.0327;0.0081;0.00049;1.24;350
424;456;0.0328;0.0082;0.000491;1.24;350
426;456;0.0328;0.0082;0.000492;1.24;350
428;456;0.0329;0.0082;0.000493;1.24;350
430;456;0.033;0.0082;0.000494;1.24;350
432;456;0.033;0.0082;0.000495;1.25;350
434;456;0.0331;0.0082;0.000496;1.25;350
436;456;0.0331;0.0083;0.000497;1.25;350
438;457;0.0332;0.0083;0.000498;1.26;350
440;457;0.0333;0.0083;0.000498;1.26;350
442;457;0.0333;0.0083;0.000499;1.26;350
444;457;0.0334;0.0083;0.0005;1.26;350
446;457;0.0334;0.0083;0.000501;1.26;350
448;457;0.0335;0.0084;0.000502;1.27;350
450;457;0.0336;0.0084;0.000503;1.27;350
452;457;0.0336;0.0084;0.000504;1.27;350
454;457;0.0337;0.0077;0.00133;1.27;350
456;457;0.0338;0.0077;0.00133;1.28;350
458;457;0.0338;0.0077;0.00133;1.28;350
460;457;0.0339;0.0077;0.00133;1.28;350
462;457;0.0339;0.0077;0.00134;1.29;350
464;457;0.034;0.0077;0.00134;1.29;350
466;457;0.0341;0.0077;0.00134;1.29;350
468;457;0.0341;0.0078;0.00135;1.29;350
470;457;0.0342;0.0078;0.00135;1.29;350
472;457;0.0342;0.0078;0.00135;1.3;350
474;457;0.0343;0.0078;0.00135;1.3;350
476;457;0.0344;0.0078;0.00133;1.3;350
478;457;0.0344;0.0079;0.00133;1.3;350
480;458;0.0345;0.0079;0.00132;1.31;350
482;458;0.0345;0.0079;0.0013;1.31;350
484;458;0.0346;0.0080;0.00128;1.31;350
486;458;0.0347;0.0080;0.00126;1.32;350
488;458;0.0347;0.0080;0.00124;1.32;350
490;458;0.0348;0.0080;0.00124;1.32;350
492;458;0.0349;0.0081;0.00122;1.32;350
494;458;0.0349;0.0081;0.00121;1.32;350
496;458;0.035;0.0081;0.00119;1.33;350
498;458;0.035;0.0082;0.00117;1.33;350
500;458;0.0351;0.0082;0.00115;1.33;350
502;458;0.0352;0.0082;0.00114;1.34;350
504;458;0.0352;0.0083;0.00112;1.34;350
506;458;0.0353;0.0083;0.00112;1.34;350
508;458;0.0353;0.0083;0.0011;1.34;350
510;458;0.0354;0.0084;0.00109;1.35;350
512;458;0.0355;0.0084;0.00107;1.35;350
514;458;0.0355;0.0084;0.00104;1.35;350
516;458;0.0356;0.0085;0.00104;1.35;350
518;458;0.0357;0.0085;0.00103;1.35;350
520;458;0.0357;0.0085;0.00101;1.35;350
522;458;0.0358;0.0085;0.000993;1.36;350
524;458;0.0358;0.0086;0.000984;1.36;350
526;458;0.0359;0.0086;0.000969;1.37;350
528;458;0.036;0.0086;0.000961;1.36;350
530;458;0.036;0.0087;0.000946;1.36;350
532;458;0.0361;0.0087;0.000932;1.37;350
534;457;0.0361;0.0087;0.000917;1.37;350
536;457;0.0362;0.0087;0.000903;1.37;350
538;457;0.0363;0.0088;0.000881;1.37;350
540;457;0.0363;0.0088;0.000885;1.38;350
542;457;0.0364;0.0088;0.000887;1.38;350
544;457;0.0365;0.0088;0.000883;1.37;350
546;457;0.0365;0.0089;0.000869;1.38;350
548;457;0.0366;0.0089;0.000868;1.38;350
550;457;0.0366;0.0089;0.000854;1.38;350
552;457;0.0367;0.0089;0.000853;1.38;350
554;457;0.0368;0.0090;0.000845;1.38;350
556;457;0.0368;0.0090;0.000835;1.39;350
558;457;0.0369;0.0090;0.000841;1.39;350
560;457;0.0369;0.0090;0.000836;1.39;350
562;456;0.037;0.0090;0.000828;1.39;350
564;456;0.0371;0.0091;0.000829;1.39;350
566;456;0.0371;0.0091;0.000824;1.39;350
568;456;0.0372;0.0091;0.000833;1.4;350
570;456;0.0372;0.0091;0.00083;1.4;350
572;456;0.0373;0.0091;0.00082;1.4;350
574;456;0.0374;0.0092;0.000809;1.4;350
576;456;0.0374;0.0092;0.000817;1.4;350
578;456;0.0375;0.0092;0.000814;1.4;350
580;456;0.0376;0.0092;0.000814;1.41;350
582;456;0.0376;0.0092;0.00082;1.41;350
584;456;0.0377;0.0092;0.000818;1.41;350
586;456;0.0377;0.0093;0.000816;1.41;350
588;456;0.0378;0.0093;0.000811;1.41;350
590;455;0.0379;0.0093;0.000808;1.41;350
592;455;0.0379;0.0093;0.000811;1.42;350
594;455;0.038;0.0093;0.000817;1.42;350
596;455;0.038;0.0093;0.00082;1.42;350
598;455;0.0381;0.0093;0.000834;1.43;350
600;455;0.0382;0.0094;0.000826;1.43;350
602;455;0.0382;0.0094;0.000832;1.43;350
604;455;0.0383;0.0094;0.000834;1.42;350
606;455;0.0384;0.0094;0.000829;1.43;350
608;455;0.0384;0.0094;0.000823;1.42;350
610;455;0.0385;0.0094;0.000831;1.43;350
612;455;0.0385;0.0094;0.00084;1.42;350
614;454;0.0386;0.0095;0.00085;1.43;350
616;454;0.0387;0.0095;0.000848;1.43;350
618;454;0.0387;0.0095;0.000845;1.43;350
620;454;0.0388;0.0095;0.000842;1.43;350
622;454;0.0388;0.0095;0.000833;1.43;350
624;454;0.0389;0.0095;0.000851;1.44;350
626;454;0.039;0.0095;0.000861;1.44;350
628;454;0.039;0.0096;0.000864;1.44;350
630;454;0.0391;0.0096;0.000866;1.44;350
632;454;0.0392;0.0096;0.000853;1.44;350
634;454;0.0392;0.0096;0.000866;1.45;350
636;454;0.0393;0.0096;0.000857;1.44;350
638;454;0.0393;0.0096;0.000869;1.45;350
640;454;0.0394;0.0097;0.000864;1.45;350
642;454;0.0395;0.0097;0.000876;1.45;350
644;454;0.0395;0.0097;0.000865;1.46;350
646;454;0.0396;0.0097;0.000873;1.45;350
648;453;0.0396;0.0097;0.000872;1.46;350
650;453;0.0397;0.0097;0.000865;1.46;350
652;453;0.0398;0.0097;0.000883;1.46;350
654;453;0.0398;0.0098;0.000882;1.46;350
656;453;0.0399;0.0098;0.000889;1.46;350
658;453;0.04;0.0098;0.000889;1.47;350
660;453;0.04;0.0098;0.000895;1.47;350
662;453;0.0401;0.0098;0.000878;1.47;350
664;453;0.0401;0.0098;0.000905;1.47;350
666;453;0.0402;0.0098;0.000913;1.47;350
668;453;0.0403;0.0099;0.000917;1.47;350
670;453;0.0403;0.0099;0.000921;1.48;350
672;453;0.0404;0.0099;0.000923;1.48;350
674;453;0.0404;0.0099;0.000922;1.48;350
676;453;0.0405;0.0099;0.000928;1.48;350
678;453;0.0406;0.0099;0.000928;1.48;350
680;452;0.0406;0.0099;0.000928;1.48;350
682;452;0.0407;0.0100;0.000929;1.48;350
684;452;0.0407;0.0100;0.000927;1.49;350
686;452;0.0408;0.0100;0.000933;1.48;350
688;452;0.0409;0.0100;0.000938;1.49;350
690;452;0.0409;0.0100;0.000934;1.49;350
692;452;0.041;0.0100;0.000928;1.49;350
694;452;0.0411;0.0101;0.000929;1.49;350
696;452;0.0411;0.0101;0.000945;1.49;350
698;452;0.0412;0.0101;0.000952;1.49;350
700;451;0.0412;0.0101;0.000948;1.49;350
702;451;0.0413;0.0101;0.000954;1.49;350
704;451;0.0414;0.0101;0.000962;1.49;350
706;451;0.0414;0.0101;0.000951;1.5;350
708;451;0.0415;0.0102;0.000948;1.5;350
710;451;0.0415;0.0102;0.000965;1.5;350
712;451;0.0416;0.0102;0.000969;1.5;350
714;451;0.0417;0.0102;0.000954;1.5;350
716;451;0.0417;0.0102;0.000965;1.5;350
718;450;0.0418;0.0102;0.000972;1.51;350
720;450;0.0419;0.0102;0.000971;1.5;350
722;450;0.0419;0.0103;0.000968;1.5;350
724;450;0.042;0.0103;0.000977;1.5;350
726;450;0.042;0.0103;0.000994;1.51;350
728;450;0.0421;0.0103;0.000986;1.51;350
730;450;0.0422;0.0103;0.001;1.51;350
732;450;0.0422;0.0103;0.00101;1.51;350
734;450;0.0423;0.0103;0.00101;1.51;350
736;449;0.0423;0.0104;0.000996;1.51;350
738;449;0.0424;0.0103;0.00102;1.52;350
740;449;0.0425;0.0104;0.00103;1.52;350
742;449;0.0425;0.0104;0.00102;1.52;350
744;449;0.0426;0.0104;0.00104;1.52;350
746;449;0.0427;0.0104;0.00104;1.52;350
748;449;0.0427;0.0104;0.00103;1.52;350
750;449;0.0428;0.0104;0.00105;1.52;350
752;448;0.0428;0.0104;0.00105;1.52;350
754;448;0.0429;0.0105;0.00104;1.52;350
756;448;0.043;0.0105;0.00106;1.52;350
758;448;0.043;0.0105;0.00107;1.52;350
760;448;0.0431;0.0105;0.00105;1.52;350
762;448;0.0431;0.0105;0.00106;1.52;350
764;448;0.0432;0.0105;0.00106;1.52;350
766;447;0.0433;0.0105;0.00106;1.53;350
768;447;0.0433;0.0106;0.00103;1.53;350
770;447;0.0434;0.0106;0.00105;1.53;350
772;447;0.0435;0.0106;0.00106;1.53;350
774;447;0.0435;0.0106;0.00106;1.53;350
776;447;0.0436;0.0106;0.00107;1.53;350
778;447;0.0436;0.0106;0.00107;1.53;350
780;446;0.0437;0.0107;0.00106;1.53;350
782;446;0.0438;0.0107;0.00108;1.53;350
784;446;0.0438;0.0107;0.00109;1.53;350
786;446;0.0439;0.0107;0.00108;1.54;350
788;446;0.0439;0.0107;0.0011;1.53;350
790;446;0.044;0.0107;0.00109;1.53;350
792;446;0.0441;0.0107;0.0011;1.53;350
794;446;0.0441;0.0107;0.00111;1.53;350
796;445;0.0442;0.0108;0.0011;1.53;350
798;445;0.0442;0.0108;0.00112;1.53;350
800;445;0.0443;0.0108;0.00111;1.54;350
802;445;0.0444;0.0108;0.0011;1.54;350
804;445;0.0444;0.0108;0.00112;1.53;350
806;445;0.0445;0.0108;0.00112;1.54;350
808;444;0.0446;0.0108;0.0011;1.53;350
810;444;0.0446;0.0109;0.00111;1.54;350
812;444;0.0447;0.0109;0.00113;1.54;350
814;444;0.0447;0.0109;0.00113;1.54;350
816;444;0.0448;0.0109;0.00113;1.54;350
818;444;0.0449;0.0109;0.00114;1.54;350
820;443;0.0449;0.0109;0.00114;1.54;350
822;443;0.045;0.0109;0.00113;1.53;350
824;443;0.045;0.0109;0.00114;1.54;350
826;443;0.0451;0.0109;0.00114;1.54;350
828;443;0.0452;0.0110;0.00113;1.54;350
830;442;0.0452;0.0110;0.00115;1.54;350
832;442;0.0453;0.0110;0.00115;1.54;350
834;442;0.0454;0.0110;0.00115;1.54;350
836;442;0.0454;0.0110;0.00116;1.54;350
838;442;0.0455;0.0110;0.00115;1.54;350
840;442;0.0455;0.0110;0.00117;1.55;350
842;441;0.0456;0.0110;0.00117;1.54;350
844;441;0.0457;0.0110;0.00118;1.54;350
846;441;0.0457;0.0111;0.00118;1.54;350
848;441;0.0458;0.0111;0.00117;1.54;350
850;441;0.0458;0.0111;0.00118;1.54;350
852;441;0.0459;0.0111;0.0012;1.54;350
854;440;0.046;0.0111;0.00119;1.54;350
856;440;0.046;0.0111;0.00119;1.54;350
858;440;0.0461;0.0111;0.0012;1.54;350
860;440;0.0462;0.0111;0.0012;1.54;350
862;440;0.0462;0.0113;0.00119;1.54;350
864;440;0.0463;0.0113;0.0012;1.54;350
866;440;0.0463;0.0113;0.00119;1.53;350
868;439;0.0464;0.0113;0.0012;1.54;350
870;439;0.0465;0.0113;0.0012;1.54;350
872;439;0.0465;0.0113;0.00119;1.54;350
874;439;0.0466;0.0113;0.00123;1.54;350
876;439;0.0466;0.0113;0.00122;1.54;350
878;439;0.0467;0.0114;0.00122;1.54;350
880;439;0.0468;0.0114;0.00122;1.55;350
882;438;0.0468;0.0114;0.00124;1.54;350
884;438;0.0469;0.0114;0.00124;1.55;350
886;438;0.0469;0.0114;0.00126;1.54;350
888;438;0.047;0.0114;0.00124;1.55;350
890;438;0.0471;0.0114;0.00125;1.54;350
892;438;0.0471;0.0114;0.00126;1.54;350
894;438;0.0472;0.0114;0.00126;1.55;350
896;438;0.0473;0.0114;0.00127;1.54;350
898;437;0.0473;0.0114;0.00128;1.54;350
900;437;0.0474;0.0115;0.00127;1.55;350
902;437;0.0474;0.0115;0.00128;1.55;350
904;437;0.0475;0.0115;0.00128;1.55;350
906;437;0.0476;0.0115;0.00129;1.54;350
908;437;0.0476;0.0115;0.00129;1.55;350
910;437;0.0477;0.0115;0.00129;1.55;350
912;436;0.0477;0.0115;0.00131;1.55;350
914;436;0.0478;0.0116;0.00128;1.55;350
916;436;0.0479;0.0115;0.00133;1.54;350
918;436;0.0479;0.0116;0.00131;1.55;350
920;436;0.048;0.0116;0.00132;1.55;350
922;436;0.0481;0.0116;0.00133;1.55;350
924;436;0.0481;0.0116;0.00133;1.55;350
926;435;0.0482;0.0116;0.00132;1.55;350
928;435;0.0482;0.0116;0.00131;1.55;350
930;435;0.0483;0.0116;0.00134;1.55;350
932;435;0.0484;0.0117;0.00133;1.55;350
934;435;0.0484;0.0117;0.00134;1.55;350
936;435;0.0485;0.0117;0.00134;1.55;350
938;435;0.0485;0.0117;0.00134;0.775;350
940;434;0.0485;0.0117;0.00134;0.772;350
942;434;0.0485;0.0117;0.00135;0.773;350
944;434;0.0485;0.0117;0.00133;0.772;350
946;434;0.0485;0.0117;0.00134;0.773;350
948;434;0.0485;0.0117;0.00133;0.773;350
950;434;0.0485;0.0117;0.00135;0.772;350
952;434;0.0485;0.0117;0.00135;0.776;350
954;434;0.0485;0.0117;0.00135;0.774;350
956;434;0.0485;0.0117;0.00136;0.773;350
958;434;0.0485;0.0117;0.00136;0.776;350
960;434;0.0485;0.0116;0.00138;0.773;350
962;434;0.0485;0.0117;0.00136;0.775;350
964;434;0.0485;0.0116;0.00137;0.774;350
966;434;0.0485;0.0117;0.00136;0.777;350
968;434;0.0485;0.0116;0.00139;0.777;350
970;434;0.0485;0.0116;0.0014;0.777;350
972;434;0.0485;0.0116;0.00138;0.781;350
974;434;0.0485;0.0116;0.0014;0.782;350
976;435;0.0485;0.0116;0.0014;0.784;350
978;435;0.0485;0.0116;0.0014;0.785;350
980;435;0.0485;0.0116;0.0014;0.786;350
982;435;0.0485;0.0116;0.00138;0.788;350
984;436;0.0485;0.0116;0.00138;0.789;350
986;436;0.0485;0.0116;0.00138;0.792;350
988;436;0.0485;0.0116;0.0014;0.792;350
990;436;0.0485;0.0116;0.00139;0.794;350
992;437;0.0485;0.0116;0.0014;0.797;350
994;437;0.0485;0.0116;0.00139;0.797;350
996;437;0.0485;0.0116;0.00139;0.801;350
998;438;0.0485;0.0116;0.0014;0.805;350
1000;438;0.0485;0.0116;0.0014;0.811;350
1002;439;0.0485;0.0116;0.00141;0.811;350
1004;439;0.0485;0.0116;0.0014;0.812;350
1006;439;0.0485;0.0116;0.00142;0.815;350
1008;440;0.0485;0.0116;0.0014;0.818;350
1010;440;0.0485;0.0116;0.00143;0.821;350
1012;441;0.0485;0.0116;0.00144;0.824;350
1014;441;0.0485;0.0116;0.00144;0.827;350
1016;441;0.0485;0.0116;0.00143;0.83;350
1018;442;0.0485;0.0116;0.00142;0.831;350
1020;442;0.0485;0.0116;0.00142;0.834;350
1022;443;0.0485;0.0116;0.00143;0.836;350
1024;443;0.0485;0.0116;0.00143;0.837;350
1026;443;0.0485;0.0116;0.00144;0.841;350
1028;444;0.0485;0.0116;0.00143;0.841;350
1030;444;0.0485;0.0116;0.00144;0.844;350
1032;445;0.0485;0.0116;0.00143;0.845;350
1034;445;0.0485;0.0116;0.00142;0.848;350
1036;445;0.0485;0.0116;0.00143;0.851;350
1038;446;0.0485;0.0116;0.00144;0.856;350
1040;446;0.0485;0.0116;0.00144;0.859;350
1042;446;0.0485;0.0116;0.00143;0.861;350
1044;447;0.0485;0.0116;0.00143;0.862;350
1046;447;0.0485;0.0116;0.00144;0.868;350
1048;448;0.0485;0.0116;0.00144;0.868;350
1050;448;0.0485;0.0116;0.00145;0.874;350
1052;448;0.0485;0.0116;0.00146;0.874;350
1054;448;0.0485;0.0116;0.00145;0.876;350
1056;449;0.0485;0.0116;0.00142;0.877;350
1058;449;0.0485;0.0116;0.00145;0.88;350
1060;449;0.0485;0.0116;0.00145;0.883;350
1062;449;0.0485;0.0116;0.00146;0.885;350
1064;449;0.0485;0.0116;0.00146;0.886;350
1066;449;0.0485;0.0116;0.00145;0.886;350
1068;450;0.0485;0.0116;0.00145;0.886;350
1070;450;0.0485;0.0115;0.00146;0.888;350
1072;450;0.0485;0.0115;0.00147;0.889;350
1074;450;0.0485;0.0115;0.00147;0.892;350
1076;450;0.0485;0.0115;0.00147;0.894;350
1078;450;0.0485;0.0116;0.00145;0.895;350
1080;451;0.0485;0.0115;0.00146;0.898;350
1082;451;0.0485;0.0116;0.00146;0.899;350
1084;451;0.0485;0.0116;0.00146;0.902;350
1086;451;0.0485;0.0115;0.00147;0.902;350
1088;451;0.0485;0.0116;0.00144;0.906;350
1090;452;0.0485;0.0115;0.00147;0.907;350
1092;452;0.0485;0.0116;0.00146;0.909;350
1094;452;0.0485;0.0115;0.00147;0.912;350
1096;452;0.0485;0.0115;0.00148;0.913;350
1098;453;0.0485;0.0115;0.00147;0.917;350
1100;453;0.0485;0.0115;0.00147;0.918;350
1102;453;0.0485;0.0115;0.00147;0.922;350
1104;454;0.0485;0.0115;0.00149;0.924;350
1106;454;0.0485;0.0115;0.00149;0.926;350
1108;454;0.0485;0.0115;0.00149;0.929;350
1110;454;0.0485;0.0115;0.00148;0.93;350
1112;455;0.0485;0.0116;0.00146;0.934;350
1114;455;0.0485;0.0115;0.00147;0.939;350
1116;455;0.0485;0.0115;0.00147;0.944;350
1118;456;0.0485;0.0115;0.00148;0.947;350
1120;456;0.0485;0.0115;0.00148;0.95;350
1122;457;0.0485;0.0115;0.00148;0.953;350
1124;457;0.0485;0.0115;0.00146;0.956;350
1126;458;0.0485;0.0115;0.00148;0.956;350
1128;458;0.0485;0.0115;0.00149;0.961;350
1130;459;0.0485;0.0115;0.00149;0.962;350
1132;459;0.0485;0.0115;0.0015;0.967;350
1134;460;0.0485;0.0115;0.00151;0.968;350
1136;460;0.0485;0.0115;0.0015;0.977;350
1138;460;0.0485;0.0115;0.0015;0.978;350
1140;461;0.0485;0.0115;0.00149;0.983;350
1142;461;0.0485;0.0115;0.00149;0.986;350
1144;462;0.0485;0.0115;0.0015;0.988;350
1146;462;0.0485;0.0115;0.00149;0.992;350
1148;463;0.0485;0.0115;0.00147;0.996;350
1150;463;0.0485;0.0116;0.00146;0.996;350
1152;463;0.0485;0.0116;0.00146;1;350
1154;464;0.0485;0.0115;0.00147;1;350
1156;464;0.0485;0.0115;0.00147;1;350
1158;464;0.0485;0.0115;0.00148;1.01;350
1160;464;0.0485;0.0115;0.00149;1.01;350
1162;464;0.0485;0.0115;0.00149;1.01;350
1164;465;0.0485;0.0115;0.00149;1.01;350
1166;465;0.0485;0.0115;0.0015;1.02;350
1168;465;0.0485;0.0115;0.00147;1.02;350
1170;465;0.0485;0.0115;0.00151;1.02;350
1172;465;0.0485;0.0115;0.00149;1.03;350
1174;466;0.0485;0.0115;0.0015;1.03;350
1176;466;0.0485;0.0115;0.0015;1.03;350
1178;466;0.0485;0.0115;0.00152;1.03;350
1180;467;0.0485;0.0115;0.00152;1.03;350
1182;467;0.0485;0.0115;0.00152;1.04;350
1184;467;0.0485;0.0115;0.00153;1.04;350
1186;468;0.0485;0.0115;0.00153;1.05;350
1188;468;0.0485;0.0115;0.00151;1.05;350
1190;468;0.0485;0.0115;0.00153;1.05;350
1192;469;0.0485;0.0115;0.00152;1.06;350
1194;469;0.0485;0.0115;0.00153;1.06;350
1196;469;0.0485;0.0115;0.00152;1.06;350
1198;470;0.0485;0.0115;0.00153;1.07;350
1200;470;0.0485;0.0115;0.00153;1.07;350
1202;470;0.0485;0.0115;0.00152;1.07;350
1204;470;0.0485;0.0115;0.00151;1.08;350
1206;470;0.0485;0.0115;0.00152;1.08;350
1208;470;0.0485;0.0115;0.00152;1.08;350
1210;471;0.0485;0.0115;0.00152;1.08;350
1212;471;0.0485;0.0115;0.00153;1.08;350
1214;471;0.0485;0.0115;0.00153;1.08;350
1216;471;0.0485;0.0115;0.00152;1.08;350
1218;471;0.0485;0.0115;0.00153;1.09;350
1220;471;0.0485;0.0115;0.00151;1.09;350
1222;471;0.0485;0.0115;0.00153;1.09;350
1224;471;0.0485;0.0115;0.00153;1.09;350
1226;471;0.0485;0.0115;0.00154;1.09;350
1228;471;0.0485;0.0115;0.00154;1.1;350
1230;471;0.0485;0.0115;0.00154;1.1;350
1232;471;0.0485;0.0115;0.00155;1.1;350
1234;471;0.0485;0.0115;0.00155;1.1;350
1236;471;0.0485;0.0115;0.00154;1.1;350
1238;471;0.0485;0.0114;0.00156;1.1;350
1240;470;0.0485;0.0115;0.00156;1.1;350
1242;470;0.0485;0.0115;0.00155;1.1;350
1244;470;0.0485;0.0115;0.00155;1.11;350
1246;470;0.0485;0.0115;0.00155;1.11;350
1248;470;0.0485;0.0115;0.00156;1.11;350
1250;470;0.0485;0.0115;0.00155;1.11;350
1252;470;0.0485;0.0115;0.00154;1.11;350
1254;470;0.0485;0.0115;0.00154;1.11;350
1256;470;0.0485;0.0115;0.00154;1.11;350
1258;470;0.0485;0.0115;0.00154;1.11;350
1260;470;0.0485;0.0115;0.00155;1.12;350
1262;470;0.0485;0.0115;0.00155;1.12;350
1264;470;0.0485;0.0115;0.00156;1.12;350
1266;470;0.0485;0.0114;0.00156;1.12;350
1268;470;0.0485;0.0115;0.00156;1.12;350
1270;470;0.0485;0.0115;0.00155;1.12;350
1272;470;0.0485;0.0115;0.00154;1.13;350
1274;470;0.0485;0.0115;0.00153;1.13;350
1276;470;0.0485;0.0115;0.00153;1.13;350
1278;470;0.0485;0.0115;0.00154;1.13;350
1280;470;0.0485;0.0115;0.00154;1.13;350
1282;470;0.0485;0.0115;0.00153;1.13;350
1284;470;0.0485;0.0115;0.00156;1.14;350
1286;470;0.0485;0.0114;0.00157;1.14;350
1288;470;0.0485;0.0115;0.00155;1.14;350
1290;470;0.0485;0.0115;0.00156;1.14;350
1292;470;0.0485;0.0115;0.00156;1.14;350
1294;470;0.0485;0.0114;0.00156;1.14;350
1296;470;0.0485;0.0114;0.00157;1.14;350
1298;470;0.0485;0.0114;0.00158;1.15;350
1300;470;0.0485;0.0114;0.00157;1.15;350
1302;470;0.0485;0.0115;0.00155;1.15;350
1304;470;0.0485;0.0114;0.00157;1.15;350
1306;470;0.0485;0.0114;0.00157;1.15;350
1308;470;0.0485;0.0114;0.00157;1.15;350
1310;470;0.0485;0.0114;0.00156;1.15;350
1312;469;0.0485;0.0114;0.00156;1.15;350
1314;469;0.0485;0.0115;0.00155;1.15;350
1316;469;0.0485;0.0114;0.00157;1.16;350
1318;469;0.0485;0.0114;0.00157;1.16;350
1320;469;0.0485;0.0115;0.00156;1.16;350
1322;469;0.0485;0.0114;0.00157;1.16;350
1324;469;0.0485;0.0114;0.00156;1.16;350
1326;469;0.0485;0.0114;0.00156;1.16;350
1328;469;0.0485;0.0115;0.00155;1.17;350
1330;469;0.0485;0.0115;0.00154;1.16;350
1332;469;0.0485;0.0115;0.00155;1.17;350
1334;469;0.0485;0.0114;0.00157;1.17;350
1336;469;0.0485;0.0115;0.00155;1.17;350
1338;469;0.0485;0.0115;0.00155;1.17;350
1340;469;0.0485;0.0114;0.00157;1.17;350
1342;469;0.0485;0.0114;0.00159;1.18;350
1344;469;0.0485;0.0114;0.00159;1.17;350
1346;469;0.0485;0.0114;0.00159;1.18;350
1348;469;0.0485;0.0114;0.0016;1.18;350
1350;468;0.0485;0.0114;0.00162;1.18;350
1352;469;0.0485;0.0114;0.00161;1.18;350
1354;469;0.0485;0.0114;0.0016;1.18;350
1356;469;0.0485;0.0114;0.00158;1.19;350
1358;469;0.0485;0.0114;0.00159;1.19;350
1360;469;0.0485;0.0114;0.00161;1.19;350
1362;469;0.0485;0.0114;0.00161;1.19;350
1364;469;0.0485;0.0114;0.00161;1.19;350
1366;469;0.0485;0.0114;0.00159;1.19;350
1368;469;0.0485;0.0114;0.0016;1.19;350
1370;469;0.0485;0.0114;0.00159;1.2;350
1372;469;0.0485;0.0114;0.00159;1.2;350
1374;469;0.0485;0.0114;0.0016;1.2;350
1376;469;0.0485;0.0114;0.00159;1.2;350
1378;469;0.0485;0.0114;0.00161;1.2;350
1380;469;0.0485;0.0114;0.00161;1.2;350
1382;469;0.0485;0.0114;0.0016;1.21;350
1384;469;0.0485;0.0114;0.00161;1.2;350
1386;469;0.0485;0.0114;0.00161;1.21;350
1388;469;0.0485;0.0114;0.00161;1.21;350
1390;469;0.0485;0.0114;0.00161;1.21;350
1392;469;0.0485;0.0114;0.00161;1.21;350
1394;469;0.0485;0.0114;0.00159;1.21;350
1396;469;0.0485;0.0114;0.0016;1.22;350
1398;469;0.0485;0.0114;0.00162;1.22;350
1400;469;0.0485;0.0114;0.00159;1.22;350
1402;468;0.0485;0.0114;0.00161;1.22;350
1404;469;0.0485;0.0114;0.00162;1.22;350
1406;469;0.0485;0.0114;0.0016;1.22;350
1408;469;0.0485;0.0114;0.0016;1.22;350
1410;469;0.0485;0.0114;0.0016;1.23;350
1412;468;0.0485;0.0114;0.00161;1.23;350
1414;468;0.0485;0.0114;0.00162;1.23;350
1416;468;0.0485;0.0114;0.00162;1.23;350
1418;468;0.0485;0.0114;0.00162;1.23;350
1420;468;0.0485;0.0114;0.00161;1.23;350
1422;468;0.0485;0.0114;0.00161;1.24;350
1424;468;0.0485;0.0114;0.00162;1.24;350
1426;468;0.0485;0.0114;0.0016;1.24;350
1428;468;0.0485;0.0114;0.00162;1.24;350
1430;468;0.0485;0.0114;0.00162;1.24;350
1432;468;0.0485;0.0114;0.00163;1.24;350
1434;468;0.0485;0.0114;0.00163;1.24;350
1436;468;0.0485;0.0114;0.00164;1.25;350
1438;468;0.0485;0.0114;0.00164;1.24;350
1440;468;0.0485;0.0114;0.00164;1.25;350
1442;468;0.0485;0.0114;0.00163;1.25;350
1444;468;0.0485;0.0114;0.00163;1.25;350
1446;468;0.0485;0.0114;0.00165;1.25;350
1448;468;0.0485;0.0114;0.00165;1.25;350
1450;467;0.0485;0.0114;0.00163;1.25;350
1452;467;0.0485;0.0114;0.00165;1.25;350
1454;467;0.0485;0.0114;0.00165;1.26;350
1456;467;0.0485;0.0114;0.00163;1.26;350
1458;467;0.0485;0.0114;0.00164;1.26;350
1460;467;0.0485;0.0114;0.00164;1.26;350
1462;467;0.0485;0.0114;0.00164;1.26;350
1464;467;0.0485;0.0114;0.00165;1.26;350
1466;467;0.0485;0.0114;0.00165;1.26;350
1468;467;0.0485;0.0114;0.00165;1.26;350
1470;466;0.0485;0.0114;0.00165;1.26;350
1472;466;0.0485;0.0114;0.00163;1.26;350
1474;466;0.0485;0.0114;0.00164;1.26;350
1476;466;0.0485;0.0114;0.00162;1.26;350
1478;466;0.0485;0.0114;0.00163;1.27;350
1480;466;0.0485;0.0114;0.00162;1.27;350
1482;466;0.0485;0.0114;0.00164;1.27;350
1484;466;0.0485;0.0114;0.00162;1.28;350
1486;466;0.0485;0.0114;0.00162;1.27;350
1488;466;0.0485;0.0114;0.00162;1.28;350
1490;466;0.0485;0.0114;0.00162;1.28;350
1492;466;0.0485;0.0114;0.00162;1.28;350
1494;466;0.0485;0.0114;0.00163;1.28;350
1496;466;0.0485;0.0114;0.00164;1.28;350
1498;466;0.0485;0.0114;0.00163;1.28;350
1500;466;0.0485;0.0114;0.00163;1.28;350
1502;466;0.0485;0.0114;0.00164;1.28;350
1504;466;0.0485;0.0114;0.00164;1.29;350
1506;466;0.0485;0.0114;0.00164;1.29;350
1508;466;0.0485;0.0113;0.00166;1.29;350
1510;466;0.0485;0.0114;0.00165;1.29;350
1512;466;0.0485;0.0114;0.00165;1.29;350
1514;466;0.0485;0.0113;0.00166;1.3;350
1516;466;0.0485;0.0113;0.00167;1.29;350
1518;466;0.0485;0.0113;0.00166;1.3;350
1520;466;0.0485;0.0113;0.00166;1.3;350
1522;466;0.0485;0.0113;0.00165;1.3;350
1524;466;0.0485;0.0113;0.00166;1.3;350
1526;466;0.0485;0.0113;0.00168;1.3;350
1528;466;0.0485;0.0113;0.00166;1.3;350
1530;466;0.0485;0.0113;0.00167;1.3;350
1532;466;0.0485;0.0113;0.00167;1.31;350
1534;466;0.0485;0.0113;0.00169;1.31;350
1536;466;0.0485;0.0113;0.00168;1.31;350
1538;467;0.0485;0.0113;0.00168;1.31;350
1540;467;0.0485;0.0113;0.00168;1.31;350
1542;467;0.0485;0.0113;0.00168;1.32;350
1544;467;0.0485;0.0113;0.00168;1.32;350
1546;467;0.0485;0.0113;0.00167;1.32;350
1548;468;0.0485;0.0113;0.00167;1.32;350
1550;468;0.0485;0.0113;0.00167;1.33;350
1552;468;0.0485;0.0114;0.00165;1.33;350
1554;468;0.0485;0.0113;0.00167;1.34;350
1556;468;0.0485;0.0113;0.00167;1.34;350
1558;469;0.0485;0.0113;0.00167;1.34;350
1560;469;0.0485;0.0113;0.00166;1.34;350
1562;469;0.0485;0.0113;0.00166;1.35;350
1564;470;0.0485;0.0113;0.00168;1.35;350
1566;470;0.0485;0.0113;0.00169;1.35;350
1568;470;0.0485;0.0113;0.00167;1.35;350
1570;470;0.0485;0.0113;0.00166;1.35;350
1572;470;0.0485;0.0113;0.00166;1.36;350
1574;470;0.0485;0.0113;0.00168;1.36;350
1576;471;0.0485;0.0113;0.00168;1.37;350
1578;471;0.0485;0.0113;0.00169;1.36;350
1580;471;0.0485;0.0113;0.00168;1.37;350
1582;471;0.0485;0.0113;0.00167;1.37;350
1584;471;0.0485;0.0113;0.00166;1.37;350
1586;471;0.0485;0.0113;0.00168;1.37;350
1588;471;0.0485;0.0113;0.00169;1.37;350
1590;471;0.0485;0.0113;0.0017;1.38;350
1592;471;0.0485;0.0113;0.00168;1.38;350
1594;471;0.0485;0.0113;0.00169;1.38;350
1596;471;0.0485;0.0113;0.00169;1.38;350
1598;471;0.0485;0.0113;0.00168;1.38;350
1600;471;0.0485;0.0113;0.00169;1.38;350
1602;471;0.0485;0.0113;0.00168;1.39;350
1604;471;0.0485;0.0113;0.00168;1.39;350
1606;471;0.0485;0.0113;0.00168;1.39;350
1608;471;0.0485;0.0113;0.00168;1.39;350
1610;471;0.0485;0.0113;0.00167;1.39;350
1612;471;0.0485;0.0113;0.00166;1.4;350
1614;471;0.0485;0.0113;0.00167;1.4;350
1616;471;0.0485;0.0113;0.00167;1.4;350
1618;471;0.0485;0.0113;0.00166;1.4;350
1620;471;0.0485;0.0113;0.00165;1.41;350
1622;471;0.0485;0.0114;0.00164;1.41;350
1624;471;0.0485;0.0113;0.00166;1.41;350
1626;471;0.0485;0.0113;0.00167;1.41;350
1628;471;0.0485;0.0113;0.00167;1.41;350
1630;471;0.0485;0.0113;0.00166;1.41;350
1632;471;0.0485;0.0114;0.00165;1.41;350
1634;471;0.0485;0.0113;0.00165;1.41;350
1636;471;0.0485;0.0113;0.00167;1.41;350
1638;471;0.0485;0.0113;0.00168;1.41;350
1640;471;0.0485;0.0113;0.00166;1.42;350
1642;471;0.0485;0.0113;0.00165;1.42;350
1644;471;0.0485;0.0113;0.00167;1.42;350
1646;471;0.0485;0.0113;0.00167;1.42;350
1648;471;0.0485;0.0113;0.00167;1.42;350
1650;471;0.0485;0.0113;0.00166;1.43;350
1652;471;0.0485;0.0113;0.00167;1.43;350
1654;471;0.0485;0.0113;0.00167;1.43;350
1656;471;0.0485;0.0113;0.00166;1.43;350
1658;471;0.0485;0.0113;0.00167;1.43;350
1660;471;0.0485;0.0113;0.00166;1.43;350
1662;471;0.0485;0.0113;0.00167;1.43;350
1664;470;0.0485;0.0113;0.00166;1.44;350
1666;470;0.0485;0.0113;0.00167;1.44;350
1668;470;0.0485;0.0113;0.00167;1.43;350
1670;470;0.0485;0.0113;0.00166;1.44;350
1672;470;0.0485;0.0113;0.00165;1.44;350
1674;470;0.0485;0.0113;0.00166;1.44;350
1676;470;0.0485;0.0113;0.00167;1.44;350
1678;470;0.0485;0.0114;0.00165;1.44;350
1680;470;0.0485;0.0114;0.00164;1.44;350
1682;470;0.0485;0.0113;0.00165;1.44;350
1684;470;0.0485;0.0114;0.00164;1.45;350
1686;470;0.0485;0.0114;0.00165;1.45;350
1688;470;0.0485;0.0114;0.00164;1.45;350
1690;470;0.0485;0.0114;0.00165;1.45;350
1692;470;0.0485;0.0113;0.00166;1.45;350
1694;469;0.0485;0.0113;0.00166;1.45;350
1696;469;0.0485;0.0113;0.00166;1.45;350
1698;469;0.0485;0.0114;0.00164;1.46;350
1700;469;0.0485;0.0113;0.00166;1.46;350
1702;469;0.0485;0.0113;0.00166;1.46;350
1704;469;0.0485;0.0113;0.00167;1.46;350
1706;469;0.0485;0.0114;0.00165;1.46;350
1708;469;0.0485;0.0113;0.00167;1.46;350
1710;469;0.0485;0.0113;0.00167;1.46;350
1712;469;0.0485;0.0113;0.00166;1.46;350
1714;469;0.0485;0.0114;0.00165;1.47;350
1716;469;0.0485;0.0113;0.00167;1.47;350
1718;469;0.0485;0.0114;0.00164;1.47;350
1720;469;0.0485;0.0114;0.00165;1.47;350
1722;469;0.0485;0.0114;0.00165;1.47;350
1724;468;0.0485;0.0113;0.00166;1.48;350
1726;468;0.0485;0.0113;0.00166;1.47;350
1728;468;0.0485;0.0114;0.00165;1.48;350
1730;468;0.0485;0.0114;0.00165;1.48;350
1732;468;0.0485;0.0114;0.00165;1.48;350
1734;468;0.0485;0.0114;0.00164;1.48;350
1736;468;0.0485;0.0113;0.00166;1.48;350
1738;468;0.0485;0.0114;0.00165;1.48;350
1740;468;0.0485;0.0113;0.00166;1.48;350
1742;468;0.0485;0.0113;0.00166;1.48;350
1744;468;0.0485;0.0114;0.00165;1.48;350
1746;467;0.0485;0.0114;0.00163;1.48;350
1748;467;0.0485;0.0114;0.00165;1.48;350
1750;467;0.0485;0.0114;0.00164;1.49;350
1752;467;0.0485;0.0114;0.00162;1.49;350
1754;467;0.0485;0.0114;0.00164;1.49;350
1756;467;0.0485;0.0114;0.00163;1.49;350
1758;466;0.0485;0.0114;0.00161;1.49;350
1760;466;0.0485;0.0114;0.00162;1.49;350
1762;466;0.0485;0.0114;0.00162;1.49;350
1764;466;0.0485;0.0114;0.00161;1.49;350
1766;466;0.0485;0.0114;0.00161;1.49;350
1768;466;0.0485;0.0114;0.00161;1.49;350
1770;465;0.0485;0.0114;0.0016;1.49;350
1772;465;0.0485;0.0114;0.00161;1.49;350
1774;465;0.0485;0.0114;0.00162;1.49;350
1776;465;0.0485;0.0114;0.00162;1.49;350
1778;465;0.0485;0.0114;0.0016;1.49;350
1780;464;0.0485;0.0114;0.0016;1.5;350
1782;464;0.0485;0.0114;0.00162;1.5;350
1784;464;0.0485;0.0114;0.00162;1.5;350
1786;464;0.0485;0.0114;0.00162;1.5;350
1788;464;0.0485;0.0114;0.00162;1.5;350
1790;463;0.0485;0.0114;0.0016;1.5;350
1792;463;0.0485;0.0114;0.00161;1.5;350
1794;463;0.0485;0.0114;0.00161;1.5;350
1796;463;0.0485;0.0114;0.00161;1.5;350
1798;463;0.0485;0.0114;0.0016;1.5;350
1800;463;0.0485;0.0114;0.00161;1.5;350
1802;462;0.0485;0.0114;0.00159;1.5;350
1804;462;0.0485;0.0114;0.00161;1.5;350
1806;461;0.0485;0.0114;0.0016;1.5;350
1808;460;0.0485;0.0114;0.00158;1.5;350
1810;459;0.0485;0.0114;0.0016;1.49;350
1812;458;0.0485;0.0114;0.00158;1.49;350
1814;457;0.0485;0.0114;0.0016;1.48;350
1816;456;0.0485;0.0114;0.0016;1.48;350
1818;455;0.0485;0.0114;0.00158;1.48;350
1820;454;0.0485;0.0114;0.00161;1.47;350
1822;454;0.0485;0.0114;0.0016;1.47;350
1824;453;0.0485;0.0114;0.0016;1.47;350
1826;452;0.0485;0.0114;0.00161;1.47;350
1828;451;0.0485;0.0114;0.00161;1.47;350
1830;451;0.0485;0.0114;0.0016;1.47;350
1832;451;0.0485;0.0114;0.0016;1.46;350
1834;450;0.0485;0.0114;0.00159;1.46;350
1836;450;0.0485;0.0114;0.0016;1.46;350
1838;449;0.0485;0.0114;0.0016;1.46;350
1840;449;0.0485;0.0114;0.00158;1.46;350
1842;448;0.0485;0.0114;0.00159;1.46;350
1844;448;0.0485;0.0114;0.00158;1.46;350
1846;448;0.0485;0.0114;0.00158;1.46;350
1848;447;0.0485;0.0114;0.00159;1.45;350
1850;447;0.0485;0.0114;0.00157;1.46;350
1852;447;0.0485;0.0114;0.0016;1.45;350
1854;446;0.0485;0.0114;0.00157;1.45;350
1856;446;0.0485;0.0114;0.00158;1.45;350
1858;446;0.0485;0.0114;0.00159;1.45;350
1860;445;0.0485;0.0114;0.00158;1.45;350
1862;445;0.0485;0.0114;0.00158;1.45;350
1864;445;0.0485;0.0114;0.00157;1.45;350
1866;444;0.0485;0.0114;0.00158;1.45;350
1868;444;0.0485;0.0114;0.00158;1.45;350
1870;444;0.0485;0.0114;0.00159;1.45;350
1872;444;0.0485;0.0114;0.00158;1.45;350
1874;444;0.0485;0.0114;0.00159;1.45;350
1876;444;0.0485;0.0114;0.0016;1.45;350
1878;444;0.0485;0.0114;0.00159;1.45;350
1880;443;0.0485;0.0114;0.00159;1.45;350
1882;443;0.0485;0.0114;0.00158;1.45;350
1884;443;0.0485;0.0114;0.00158;1.45;350
1886;443;0.0485;0.0114;0.0016;1.45;350
1888;443;0.0485;0.0114;0.0016;1.45;350
1890;443;0.0485;0.0114;0.0016;1.45;350
1892;443;0.0485;0.0114;0.00159;1.45;350
1894;443;0.0485;0.0114;0.00159;1.45;350
1896;443;0.0485;0.0114;0.0016;1.45;350
1898;443;0.0485;0.0114;0.0016;1.45;350
1900;442;0.0485;0.0114;0.00158;1.45;350
1902;442;0.0485;0.0114;0.00159;1.45;350
1904;442;0.0485;0.0114;0.00158;1.46;350
1906;442;0.0485;0.0114;0.0016;1.45;350
1908;442;0.0485;0.0114;0.00159;1.46;350
1910;442;0.0485;0.0114;0.00159;1.46;350
1912;442;0.0485;0.0114;0.00159;1.45;350
1914;442;0.0485;0.0114;0.00158;1.45;350
1916;442;0.0485;0.0114;0.0016;1.46;350
1918;442;0.0485;0.0114;0.00157;1.45;350
1920;442;0.0485;0.0114;0.00158;1.46;350
1922;442;0.0485;0.0114;0.00158;1.45;350
1924;441;0.0485;0.0115;0.00156;1.45;350
1926;441;0.0485;0.0114;0.00156;1.45;350
1928;441;0.0485;0.0114;0.00156;1.45;350
1930;441;0.0485;0.0114;0.00158;1.46;350
1932;441;0.0485;0.0115;0.00155;1.45;350
1934;441;0.0485;0.0114;0.00157;1.46;350
1936;441;0.0485;0.0114;0.00159;1.45;350
1938;441;0.0485;0.0114;0.00158;1.46;350
1940;440;0.0485;0.0114;0.0016;1.46;350
1942;440;0.0485;0.0114;0.00159;1.46;350
1944;440;0.0485;0.0114;0.0016;1.46;350
1946;440;0.0485;0.0114;0.00161;1.46;350
1948;440;0.0485;0.0114;0.00159;1.46;350
1950;440;0.0485;0.0114;0.00161;1.46;350
1952;439;0.0485;0.0114;0.0016;1.46;350
1954;440;0.0485;0.0114;0.00158;1.46;350
1956;439;0.0485;0.0114;0.0016;1.46;350
1958;439;0.0485;0.0114;0.0016;1.46;350
1960;439;0.0485;0.0114;0.00159;1.46;350
1962;439;0.0485;0.0114;0.00158;1.46;350
1964;439;0.0485;0.0114;0.00158;1.46;350
1966;439;0.0485;0.0114;0.00158;1.46;350
1968;439;0.0485;0.0114;0.00158;1.46;350
1970;439;0.0485;0.0114;0.00158;1.46;350
1972;439;0.0485;0.0114;0.00158;1.46;350
1974;439;0.0485;0.0114;0.00158;1.46;350
1976;439;0.0485;0.0114;0.00158;1.46;350
1978;439;0.0485;0.0114;0.00158;1.46;350
1980;439;0.0485;0.0114;0.00158;1.46;350
1982;439;0.0485;0.0114;0.00158;1.46;350
1984;439;0.0485;0.0114;0.00158;1.46;350
1986;439;0.0485;0.0114;0.00158;1.46;350
1988;438;0.0485;0.0114;0.00158;1.46;350
1990;438;0.0485;0.0114;0.00158;1.46;350
1992;438;0.0485;0.0114;0.00158;1.46;350
1994;438;0.0485;0.0114;0.00158;1.47;350
1996;438;0.0485;0.0114;0.00158;1.46;350
1998;438;0.0485;0.0114;0.00158;1.47;350
2000;438;0.0485;0.0114;0.00158;1.47;350
2002;438;0.0485;0.0114;0.00158;1.47;350
2004;438;0.0485;0.0114;0.00158;1.47;350
2006;438;0.0485;0.0114;0.00158;1.47;350
2008;438;0.0485;0.0114;0.00158;1.47;350
2010;438;0.0485;0.0114;0.00158;1.47;350
2012;438;0.0485;0.0114;0.00158;1.47;350
2014;438;0.0485;0.0114;0.00158;1.47;350
2016;438;0.0485;0.0114;0.00158;1.47;350
2018;438;0.0485;0.0114;0.00158;1.47;350
2020;438;0.0485;0.0114;0.00158;1.47;350
2022;438;0.0485;0.0114;0.00158;1.47;350
2024;438;0.0485;0.0114;0.00158;1.47;350
2026;438;0.0485;0.0114;0.00158;1.47;350
2028;438;0.0485;0.0114;0.00158;1.47;350
2030;438;0.0485;0.0114;0.00158;1.47;350
2032;438;0.0485;0.0114;0.00158;1.47;350
2034;438;0.0485;0.0114;0.00158;1.47;350
2036;438;0.0485;0.0114;0.00158;1.47;350
2038;438;0.0485;0.0114;0.00158;1.47;350
2040;438;0.0485;0.0114;0.00158;1.47;350
2042;438;0.0485;0.0114;0.00158;1.47;350
2044;438;0.0485;0.0114;0.00158;1.47;350
2046;438;0.0485;0.0114;0.00158;1.47;350
2048;438;0.0485;0.0114;0.00158;1.47;350
2050;438;0.0485;0.0114;0.00158;1.47;350
2052;438;0.0485;0.0114;0.00158;1.47;350
2054;437;0.0485;0.0114;0.00158;1.47;350
2056;437;0.0485;0.0114;0.00158;1.47;350
2058;438;0.0485;0.0114;0.00158;1.47;350
2060;438;0.0485;0.0114;0.00158;1.47;350
2062;438;0.0485;0.0114;0.00158;1.47;350
2064;438;0.0485;0.0114;0.00158;1.47;350
2066;438;0.0485;0.0114;0.00158;1.48;350
2068;437;0.0485;0.0114;0.00158;1.48;350
2070;437;0.0485;0.0114;0.00158;1.48;350
2072;437;0.0485;0.0114;0.00158;1.48;350
2074;438;0.0485;0.0114;0.00158;1.47;350
2076;438;0.0485;0.0114;0.00158;1.48;350
2078;438;0.0485;0.0114;0.00158;1.47;350
2080;438;0.0485;0.0114;0.00158;1.47;350
2082;438;0.0485;0.0114;0.00158;1.48;350
2084;438;0.0485;0.0114;0.00158;1.48;350
2086;437;0.0485;0.0114;0.00158;1.48;350
2088;437;0.0485;0.0114;0.00158;1.47;350
2090;437;0.0485;0.0114;0.00158;1.47;350
2092;437;0.0485;0.0114;0.00158;1.48;350
2094;437;0.0485;0.0114;0.00158;1.48;350
2096;437;0.0485;0.0114;0.00158;1.48;350
2098;437;0.0485;0.0114;0.00158;1.48;350
2100;437;0.0485;0.0114;0.00158;1.48;350
2102;437;0.0485;0.0114;0.00158;1.48;350
2104;437;0.0485;0.0114;0.00158;1.48;350
2106;437;0.0485;0.0114;0.00158;1.48;350
2108;437;0.0485;0.0114;0.00158;1.48;350
2110;437;0.0485;0.0114;0.00158;1.48;350
2112;437;0.0485;0.0114;0.00158;1.48;350
2114;437;0.0485;0.0114;0.00158;1.48;350
2116;437;0.0485;0.0114;0.00158;1.48;350
2118;437;0.0485;0.0114;0.00158;1.48;350
2120;437;0.0485;0.0114;0.00158;1.48;350
2122;437;0.0485;0.0114;0.00158;1.48;350
2124;437;0.0485;0.0114;0.00158;1.48;350
2126;437;0.0485;0.0114;0.00158;1.48;350
2128;437;0.0485;0.0114;0.00158;1.48;350
2130;437;0.0485;0.0114;0.00158;1.48;350
2132;437;0.0485;0.0114;0.00158;1.48;350
2134;437;0.0485;0.0114;0.00158;1.48;350
2136;437;0.0485;0.0114;0.00158;1.48;350
2138;437;0.0485;0.0114;0.00158;1.48;350
2140;437;0.0485;0.0114;0.00158;1.48;350
2142;437;0.0485;0.0114;0.00158;1.48;350
2144;437;0.0485;0.0114;0.00158;1.48;350
2146;437;0.0485;0.0114;0.00158;1.48;350
2148;437;0.0485;0.0114;0.00158;1.47;350
2150;437;0.0485;0.0114;0.00158;1.48;350
2152;437;0.0485;0.0114;0.00158;1.48;350
2154;438;0.0485;0.0114;0.00158;1.48;350
2156;438;0.0485;0.0114;0.00158;1.48;350
2158;438;0.0485;0.0114;0.00158;1.48;350
2160;438;0.0485;0.0114;0.00158;1.48;350
2162;437;0.0485;0.0114;0.00158;1.48;350
2164;437;0.0485;0.0114;0.00158;1.48;350
2166;437;0.0485;0.0114;0.00158;1.48;350
2168;437;0.0485;0.0114;0.00158;1.48;350
2170;437;0.0485;0.0114;0.00158;1.48;350
2172;437;0.0485;0.0114;0.00158;1.48;350
2174;437;0.0485;0.0114;0.00158;1.48;350
2176;437;0.0485;0.0114;0.00158;1.47;350
2178;437;0.0485;0.0114;0.00158;1.47;350
2180;437;0.0485;0.0114;0.00158;1.48;350
2182;437;0.0485;0.0114;0.00158;1.47;350
2184;437;0.0485;0.0114;0.00158;1.47;350
2186;437;0.0485;0.0114;0.00158;1.47;350
2188;437;0.0485;0.0114;0.00158;1.47;350
2190;437;0.0485;0.0114;0.00158;1.47;350
2192;437;0.0485;0.0114;0.00158;1.47;350
2194;437;0.0485;0.0114;0.00158;1.47;350
2196;437;0.0485;0.0114;0.00158;1.48;350
2198;437;0.0485;0.0114;0.00158;1.48;350
2200;437;0.0485;0.0114;0.00158;1.48;350
2202;437;0.0485;0.0114;0.00158;1.47;350
2204;437;0.0485;0.0114;0.00158;1.48;350
2206;437;0.0485;0.0114;0.00158;1.47;350
2208;437;0.0485;0.0114;0.00158;1.47;350
2210;437;0.0485;0.0114;0.00158;1.47;350
2212;437;0.0485;0.0114;0.00158;1.47;350
2214;437;0.0485;0.0114;0.00158;1.48;350
2216;437;0.0485;0.0114;0.00158;1.47;350
2218;437;0.0485;0.0114;0.00158;1.48;350
2220;437;0.0485;0.0114;0.00158;1.47;350
2222;437;0.0485;0.0114;0.00158;1.47;350
2224;437;0.0485;0.0114;0.00158;1.47;350
2226;437;0.0485;0.0114;0.00158;1.47;350
2228;437;0.0485;0.0114;0.00158;1.48;350
2230;437;0.0485;0.0114;0.00158;1.47;350
2232;437;0.0485;0.0114;0.00158;1.47;350
2234;437;0.0485;0.0114;0.00158;1.47;350
2236;437;0.0485;0.0114;0.00158;1.47;350
2238;437;0.0485;0.0114;0.00158;1.47;350
2240;437;0.0485;0.0114;0.00158;1.48;350
2242;437;0.0485;0.0114;0.00158;1.47;350
2244;437;0.0485;0.0114;0.00158;1.47;350
2246;437;0.0485;0.0114;0.00158;1.47;350
2248;437;0.0485;0.0114;0.00158;1.47;350
2250;437;0.0485;0.0114;0.00158;1.47;350
2252;437;0.0485;0.0114;0.00158;1.47;350
2254;437;0.0485;0.0114;0.00158;1.47;350
2256;436;0.0485;0.0114;0.00158;1.47;350
2258;436;0.0485;0.0114;0.00158;1.47;350
2260;437;0.0485;0.0114;0.00158;1.47;350
2262;437;0.0485;0.0114;0.00158;1.47;350
2264;437;0.0485;0.0114;0.00158;1.47;350
2266;437;0.0485;0.0114;0.00158;1.47;350
2268;437;0.0485;0.0114;0.00158;1.47;350
2270;437;0.0485;0.0114;0.00158;1.47;350
2272;437;0.0485;0.0114;0.00158;1.47;350
2274;437;0.0485;0.0114;0.00158;1.47;350
2276;437;0.0485;0.0114;0.00158;1.47;350
2278;437;0.0485;0.0114;0.00158;1.47;350
2280;437;0.0485;0.0114;0.00158;1.47;350
2282;437;0.0485;0.0114;0.00158;1.47;350
2284;437;0.0485;0.0114;0.00158;1.47;350
2286;437;0.0485;0.0114;0.00158;1.46;350
2288;437;0.0485;0.0114;0.00158;1.47;350
2290;437;0.0485;0.0114;0.00158;1.46;350
2292;437;0.0485;0.0114;0.00158;1.46;350
2294;437;0.0485;0.0114;0.00158;1.47;350
2296;437;0.0485;0.0114;0.00158;1.46;350
2298;437;0.0485;0.0114;0.00158;1.47;350
2300;437;0.0485;0.0114;0.00158;1.46;350
2302;437;0.0485;0.0114;0.00158;1.47;350
2304;437;0.0485;0.0114;0.00158;1.47;350
2306;437;0.0485;0.0114;0.00158;1.47;350
2308;436;0.0485;0.0114;0.00158;1.47;350
2310;436;0.0485;0.0114;0.00158;1.46;350
2312;436;0.0485;0.0114;0.00158;1.46;350
2314;436;0.0485;0.0114;0.00158;1.46;350
2316;436;0.0485;0.0114;0.00158;1.46;350
2318;437;0.0485;0.0114;0.00158;1.46;350
2320;437;0.0485;0.0114;0.00158;1.46;350
2322;437;0.0485;0.0114;0.00158;1.46;350
2324;437;0.0485;0.0114;0.00158;1.46;350
2326;437;0.0485;0.0114;0.00158;1.46;350
2328;437;0.0485;0.0114;0.00158;1.46;350
2330;437;0.0485;0.0114;0.00158;1.46;350
2332;437;0.0485;0.0114;0.00158;1.47;350
2334;437;0.0485;0.0114;0.00158;1.46;350
2336;437;0.0485;0.0114;0.00158;1.46;350
2338;437;0.0485;0.0114;0.00158;1.46;350
2340;437;0.0485;0.0114;0.00158;1.46;350
2342;437;0.0485;0.0114;0.00158;1.46;350
2344;437;0.0485;0.0114;0.00158;1.46;350
2346;437;0.0485;0.0114;0.00158;1.46;350
2348;437;0.0485;0.0114;0.00158;1.46;350
2350;437;0.0485;0.0114;0.00158;1.46;350
2352;437;0.0485;0.0114;0.00158;1.46;350
2354;437;0.0485;0.0114;0.00158;1.46;350
2356;437;0.0485;0.0114;0.00158;1.46;350
2358;437;0.0485;0.0114;0.00158;1.46;350
2360;436;0.0485;0.0114;0.00158;1.46;350
2362;436;0.0485;0.0114;0.00158;1.46;350
2364;436;0.0485;0.0114;0.00158;1.46;350
2366;436;0.0485;0.0114;0.00158;1.46;350
2368;436;0.0485;0.0114;0.00158;1.46;350
2370;436;0.0485;0.0114;0.00158;1.46;350
2372;436;0.0485;0.0114;0.00158;1.46;350
2374;436;0.0485;0.0114;0.00158;1.46;350
2376;436;0.0485;0.0114;0.00158;1.46;350
2378;436;0.0485;0.0114;0.00158;1.46;350
2380;436;0.0485;0.0114;0.00158;1.46;350
2382;436;0.0485;0.0114;0.00158;1.46;350
2384;436;0.0485;0.0114;0.00158;1.46;350
2386;436;0.0485;0.0114;0.00158;1.46;350
2388;436;0.0485;0.0114;0.00158;1.46;350
2390;436;0.0485;0.0114;0.00158;1.46;350
2392;436;0.0485;0.0114;0.00158;1.46;350
2394;436;0.0485;0.0114;0.00158;1.46;350
2396;436;0.0485;0.0114;0.00158;1.46;350
2398;436;0.0485;0.0114;0.00158;1.46;350
2400;436;0.0485;0.0114;0.00158;1.45;350
2402;436;0.0485;0.0114;0.00158;1.46;350
2404;436;0.0485;0.0114;0.00158;1.45;350
2406;436;0.0485;0.0114;0.00158;1.45;350
2408;436;0.0485;0.0114;0.00158;1.46;350
2410;437;0.0485;0.0114;0.00158;1.46;350
2412;437;0.0485;0.0114;0.00158;1.45;350
2414;436;0.0485;0.0114;0.00158;1.45;350
2416;436;0.0485;0.0114;0.00158;1.45;350
2418;436;0.0485;0.0114;0.00158;1.46;350
2420;436;0.0485;0.0114;0.00158;1.45;350
2422;436;0.0485;0.0114;0.00158;1.45;350
2424;436;0.0485;0.0114;0.00158;1.45;350
2426;436;0.0485;0.0114;0.00158;1.46;350
2428;436;0.0485;0.0114;0.00158;1.45;350
2430;436;0.0485;0.0114;0.00158;1.45;350
2432;436;0.0485;0.0114;0.00158;1.45;350
2434;436;0.0485;0.0114;0.00158;1.45;350
2436;436;0.0485;0.0114;0.00158;1.45;350
2438;436;0.0485;0.0114;0.00158;1.45;350
2440;436;0.0485;0.0114;0.00158;1.45;350
2442;436;0.0485;0.0114;0.00158;1.45;350
2444;436;0.0485;0.0114;0.00158;1.45;350
2446;436;0.0485;0.0114;0.00158;1.45;350
2448;436;0.0485;0.0114;0.00158;1.45;350
2450;436;0.0485;0.0114;0.00158;1.45;350
2452;436;0.0485;0.0114;0.00158;1.45;350
2454;436;0.0485;0.0114;0.00158;1.45;350
2456;436;0.0485;0.0114;0.00158;1.45;350
2458;436;0.0485;0.0114;0.00158;1.45;350
2460;436;0.0485;0.0114;0.00158;1.45;350
2462;436;0.0485;0.0114;0.00158;1.45;350
2464;436;0.0485;0.0114;0.00158;1.45;350
2466;436;0.0485;0.0114;0.00158;1.45;350
2468;436;0.0485;0.0114;0.00158;1.45;350
2470;436;0.0485;0.0114;0.00158;1.45;350
2472;436;0.0485;0.0114;0.00158;1.45;350
2474;436;0.0485;0.0114;0.00158;1.45;350
2476;436;0.0485;0.0114;0.00158;1.45;350
2478;436;0.0485;0.0114;0.00158;1.45;350
2480;436;0.0485;0.0114;0.00158;1.45;350
2482;436;0.0485;0.0114;0.00158;1.45;350
2484;436;0.0485;0.0114;0.00158;1.45;350
2486;436;0.0485;0.0114;0.00158;1.45;350
2488;436;0.0485;0.0114;0.00158;1.45;350
2490;436;0.0485;0.0114;0.00158;1.45;350
2492;436;0.0485;0.0114;0.00158;1.45;350
2494;436;0.0485;0.0114;0.00158;1.45;350
2496;436;0.0485;0.0114;0.00158;1.45;350
2498;436;0.0485;0.0114;0.00158;1.45;350
2500;436;0.0485;0.0114;0.00158;1.45;350
2502;436;0.0485;0.0114;0.00158;1.45;350
2504;436;0.0485;0.0114;0.00158;1.45;350
2506;436;0.0485;0.0114;0.00158;1.45;350
2508;436;0.0485;0.0114;0.00158;1.45;350
2510;436;0.0485;0.0114;0.00158;1.45;350
2512;436;0.0485;0.0114;0.00158;1.45;350
2514;436;0.0485;0.0114;0.00158;1.45;350
2516;436;0.0485;0.0114;0.00158;1.44;350
2518;436;0.0485;0.0114;0.00158;1.45;350
2520;436;0.0485;0.0114;0.00158;1.45;350
2522;436;0.0485;0.0114;0.00158;1.45;350
2524;436;0.0485;0.0114;0.00158;1.45;350
2526;436;0.0485;0.0114;0.00158;1.44;350
2528;436;0.0485;0.0114;0.00158;1.45;350
2530;436;0.0485;0.0114;0.00158;1.45;350
2532;436;0.0485;0.0114;0.00158;1.45;350
2534;436;0.0485;0.0114;0.00158;1.45;350
2536;436;0.0485;0.0114;0.00158;1.44;350
2538;436;0.0485;0.0114;0.00158;1.44;350
2540;436;0.0485;0.0114;0.00158;1.44;350
2542;436;0.0485;0.0114;0.00158;1.45;350
2544;436;0.0485;0.0114;0.00158;1.45;350
2546;436;0.0485;0.0114;0.00158;1.44;350
2548;436;0.0485;0.0114;0.00158;1.44;350
2550;436;0.0485;0.0114;0.00158;1.44;350
2552;436;0.0485;0.0114;0.00158;1.44;350
2554;436;0.0485;0.0114;0.00158;1.44;350
2556;436;0.0485;0.0114;0.00158;1.44;350
2558;436;0.0485;0.0114;0.00158;1.44;350
2560;436;0.0485;0.0114;0.00158;1.44;350
2562;436;0.0485;0.0114;0.00158;1.44;350
2564;436;0.0485;0.0114;0.00158;1.44;350
2566;436;0.0485;0.0114;0.00158;1.44;350
2568;436;0.0485;0.0114;0.00158;1.44;350
2570;436;0.0485;0.0114;0.00158;1.44;350
2572;436;0.0485;0.0114;0.00158;1.44;350
2574;436;0.0485;0.0114;0.00158;1.44;350
2576;436;0.0485;0.0114;0.00158;1.43;350
2578;436;0.0485;0.0114;0.00158;1.44;350
2580;436;0.0485;0.0114;0.00158;1.44;350
2582;436;0.0485;0.0114;0.00158;1.44;350
2584;436;0.0485;0.0114;0.00158;1.43;350
2586;436;0.0485;0.0114;0.00158;1.43;350
2588;436;0.0485;0.0114;0.00158;1.43;350
2590;436;0.0485;0.0114;0.00158;1.43;350
2592;436;0.0485;0.0114;0.00158;1.43;350
2594;436;0.0485;0.0114;0.00158;1.43;350
2596;436;0.0485;0.0114;0.00158;1.43;350
2598;436;0.0485;0.0114;0.00158;1.43;350
2600;436;0.0485;0.0114;0.00158;1.43;350
2602;436;0.0485;0.0114;0.00158;1.43;350
2604;436;0.0485;0.0114;0.00158;1.43;350
2606;436;0.0485;0.0114;0.00158;1.43;350
2608;436;0.0485;0.0114;0.00158;1.43;350
2610;436;0.0485;0.0114;0.00158;1.43;350
2612;436;0.0485;0.0114;0.00158;1.43;350
2614;436;0.0485;0.0114;0.00158;1.43;350
2616;436;0.0485;0.0114;0.00158;1.43;350
2618;436;0.0485;0.0114;0.00158;1.43;350
2620;436;0.0485;0.0114;0.00158;1.43;350
2622;436;0.0485;0.0114;0.00158;1.43;350
2624;436;0.0485;0.0114;0.00158;1.43;350
2626;436;0.0485;0.0114;0.00158;1.43;350
2628;436;0.0485;0.0114;0.00158;1.43;350
2630;436;0.0485;0.0114;0.00158;1.43;350
2632;436;0.0485;0.0114;0.00158;1.43;350
2634;436;0.0485;0.0114;0.00158;1.42;350
2636;436;0.0485;0.0114;0.00158;1.43;350
2638;436;0.0485;0.0114;0.00158;1.42;350
2640;436;0.0485;0.0114;0.00158;1.42;350
2642;436;0.0485;0.0114;0.00158;1.42;350
2644;436;0.0485;0.0114;0.00158;1.42;350
2646;436;0.0485;0.0114;0.00158;1.42;350
2648;436;0.0485;0.0114;0.00158;1.42;350
2650;436;0.0485;0.0114;0.00158;1.42;350
2652;436;0.0485;0.0114;0.00158;1.42;350
2654;436;0.0485;0.0114;0.00158;1.42;350
2656;436;0.0485;0.0114;0.00158;1.42;350
2658;436;0.0485;0.0114;0.00158;1.42;350
2660;436;0.0485;0.0114;0.00158;1.42;350
2662;436;0.0485;0.0114;0.00158;1.42;350
2664;436;0.0485;0.0114;0.00158;1.42;350
2666;436;0.0485;0.0114;0.00158;1.42;350
2668;436;0.0485;0.0114;0.00158;1.42;350
2670;436;0.0485;0.0114;0.00158;1.42;350
2672;436;0.0485;0.0114;0.00158;1.42;350
2674;436;0.0485;0.0114;0.00158;1.42;350
2676;436;0.0485;0.0114;0.00158;1.42;350
2678;436;0.0485;0.0114;0.00158;1.42;350
2680;436;0.0485;0.0114;0.00158;1.42;350
2682;436;0.0485;0.0114;0.00158;1.42;350
2684;436;0.0485;0.0114;0.00158;1.42;350
2686;436;0.0485;0.0114;0.00158;1.41;350
2688;436;0.0485;0.0114;0.00158;1.42;350
2690;436;0.0485;0.0114;0.00158;1.42;350
2692;436;0.0485;0.0114;0.00158;1.41;350
2694;435;0.0485;0.0114;0.00158;1.42;350
2696;435;0.0485;0.0114;0.00158;1.41;350
2698;436;0.0485;0.0114;0.00158;1.41;350
2700;436;0.0485;0.0114;0.00158;1.42;350
2702;436;0.0485;0.0114;0.00158;1.41;350
2704;436;0.0485;0.0114;0.00158;1.42;350
2706;436;0.0485;0.0114;0.00158;1.41;350
2708;436;0.0485;0.0114;0.00158;1.41;350
2710;436;0.0485;0.0114;0.00158;1.41;350
2712;435;0.0485;0.0114;0.00158;1.41;350
2714;435;0.0485;0.0114;0.00158;1.41;350
2716;435;0.0485;0.0114;0.00158;1.41;350
2718;435;0.0485;0.0114;0.00158;1.41;350
2720;435;0.0485;0.0114;0.00158;1.41;350
2722;435;0.0485;0.0114;0.00158;1.41;350
2724;435;0.0485;0.0114;0.00158;1.41;350
2726;435;0.0485;0.0114;0.00158;1.41;350
2728;435;0.0485;0.0114;0.00158;1.41;350
2730;435;0.0485;0.0114;0.00158;1.41;350
2732;435;0.0485;0.0114;0.00158;1.41;350
2734;435;0.0485;0.0114;0.00158;1.41;350
2736;435;0.0485;0.0114;0.00158;1.41;350
2738;435;0.0485;0.0114;0.00158;1.4;350
2740;435;0.0485;0.0114;0.00158;1.41;350
2742;435;0.0485;0.0114;0.00158;1.4;350
2744;435;0.0485;0.0114;0.00158;1.4;350
2746;435;0.0485;0.0114;0.00158;1.4;350
2748;435;0.0485;0.0114;0.00158;1.4;350
2750;435;0.0485;0.0114;0.00158;1.4;350
2752;435;0.0485;0.0114;0.00158;1.4;350
2754;435;0.0485;0.0114;0.00158;1.4;350
2756;435;0.0485;0.0114;0.00158;1.4;350
2758;435;0.0485;0.0114;0.00158;1.4;350
2760;435;0.0485;0.0114;0.00158;1.4;350
2762;435;0.0485;0.0114;0.00158;1.4;350
2764;435;0.0485;0.0114;0.00158;1.41;350
2766;435;0.0485;0.0114;0.00158;1.4;350
2768;435;0.0485;0.0114;0.00158;1.4;350
2770;435;0.0485;0.0114;0.00158;1.4;350
2772;435;0.0485;0.0114;0.00158;1.4;350
2774;435;0.0485;0.0114;0.00158;1.4;350
2776;435;0.0485;0.0114;0.00158;1.4;350
2778;435;0.0485;0.0114;0.00158;1.4;350
2780;435;0.0485;0.0114;0.00158;1.4;350
2782;435;0.0485;0.0114;0.00158;1.4;350
2784;435;0.0485;0.0114;0.00158;1.4;350
2786;435;0.0485;0.0114;0.00158;1.4;350
2788;435;0.0485;0.0114;0.00158;1.4;350
2790;435;0.0485;0.0114;0.00158;1.4;350
2792;435;0.0485;0.0114;0.00158;1.4;350
2794;435;0.0485;0.0114;0.00158;1.4;350
2796;435;0.0485;0.0114;0.00158;1.4;350
2798;435;0.0485;0.0114;0.00158;1.4;350
2800;435;0.0485;0.0114;0.00158;1.4;350
2802;435;0.0485;0.0114;0.00158;1.4;350
2804;435;0.0485;0.0114;0.00158;1.4;350
2806;435;0.0485;0.0114;0.00158;1.39;350
2808;435;0.0485;0.0114;0.00158;1.4;350
2810;435;0.0485;0.0114;0.00158;1.39;350
2812;435;0.0485;0.0114;0.00158;1.4;350
2814;435;0.0485;0.0114;0.00158;1.39;350
2816;435;0.0485;0.0114;0.00158;1.39;350
2818;435;0.0485;0.0114;0.00158;1.39;350
2820;435;0.0485;0.0114;0.00158;1.39;350
2822;435;0.0485;0.0114;0.00158;1.39;350
2824;435;0.0485;0.0114;0.00158;1.39;350
2826;435;0.0485;0.0114;0.00158;1.39;350
2828;435;0.0485;0.0114;0.00158;1.39;350
2830;435;0.0485;0.0114;0.00158;1.39;350
2832;435;0.0485;0.0114;0.00158;1.39;350
2834;435;0.0485;0.0114;0.00158;1.39;350
2836;435;0.0485;0.0114;0.00158;1.39;350
2838;435;0.0485;0.0114;0.00158;1.39;350
2840;435;0.0485;0.0114;0.00158;1.39;350
2842;434;0.0485;0.0114;0.00158;1.39;350
2844;434;0.0485;0.0114;0.00158;1.39;350
2846;434;0.0485;0.0114;0.00158;1.39;350
2848;434;0.0485;0.0114;0.00158;1.39;350
2850;434;0.0485;0.0114;0.00158;1.39;350
2852;434;0.0485;0.0114;0.00158;1.39;350
2854;434;0.0485;0.0114;0.00158;1.39;350
2856;434;0.0485;0.0114;0.00158;1.39;350
2858;434;0.0485;0.0114;0.00158;1.39;350
2860;434;0.0485;0.0114;0.00158;1.39;350
2862;434;0.0485;0.0114;0.00158;1.39;350
2864;434;0.0485;0.0114;0.00158;1.38;350
2866;434;0.0485;0.0114;0.00158;1.38;350
2868;434;0.0485;0.0114;0.00158;1.39;350
2870;434;0.0485;0.0114;0.00158;1.38;350
2872;434;0.0485;0.0114;0.00158;1.39;350
2874;434;0.0485;0.0114;0.00158;1.38;350
2876;434;0.0485;0.0114;0.00158;1.39;350
2878;434;0.0485;0.0114;0.00158;1.38;350
2880;434;0.0485;0.0114;0.00158;1.39;350
2882;434;0.0485;0.0114;0.00158;1.38;350
2884;434;0.0485;0.0114;0.00158;1.38;350
2886;434;0.0485;0.0114;0.00158;1.38;350
2888;434;0.0485;0.0114;0.00158;1.38;350
2890;434;0.0485;0.0114;0.00158;1.38;350
2892;434;0.0485;0.0114;0.00158;1.38;350
2894;434;0.0485;0.0114;0.00158;1.38;350
2896;434;0.0485;0.0114;0.00158;1.38;350
2898;434;0.0485;0.0114;0.00158;1.38;350
2900;434;0.0485;0.0114;0.00158;1.38;350
2902;434;0.0485;0.0114;0.00158;1.38;350
2904;434;0.0485;0.0114;0.00158;1.38;350
2906;434;0.0485;0.0114;0.00158;1.38;350
2908;434;0.0485;0.0114;0.00158;1.38;350
2910;434;0.0485;0.0114;0.00158;1.38;350
2912;434;0.0485;0.0114;0.00158;1.38;350
2914;434;0.0485;0.0114;0.00158;1.38;350
2916;434;0.0485;0.0114;0.00158;1.38;350
2918;434;0.0485;0.0114;0.00158;1.38;350
2920;434;0.0485;0.0114;0.00158;1.38;350
2922;434;0.0485;0.0114;0.00158;1.38;350
2924;434;0.0485;0.0114;0.00158;1.38;350
2926;434;0.0485;0.0114;0.00158;1.38;350
2928;434;0.0485;0.0114;0.00158;1.38;350
2930;434;0.0485;0.0114;0.00158;1.37;350
2932;434;0.0485;0.0114;0.00158;1.37;350
2934;434;0.0485;0.0114;0.00158;1.38;350
2936;434;0.0485;0.0114;0.00158;1.37;350
2938;434;0.0485;0.0114;0.00158;1.37;350
2940;434;0.0485;0.0114;0.00158;1.37;350
2942;434;0.0485;0.0114;0.00158;1.37;350
2944;434;0.0485;0.0114;0.00158;1.37;350
2946;434;0.0485;0.0114;0.00158;1.37;350
2948;434;0.0485;0.0114;0.00158;1.37;350
2950;434;0.0485;0.0114;0.00158;1.37;350
2952;434;0.0485;0.0114;0.00158;1.37;350
2954;434;0.0485;0.0114;0.00158;1.38;350
2956;434;0.0485;0.0114;0.00158;1.37;350
2958;434;0.0485;0.0114;0.00158;1.37;350
2960;434;0.0485;0.0114;0.00158;1.37;350
2962;434;0.0485;0.0114;0.00158;1.37;350
2964;434;0.0485;0.0114;0.00158;1.37;350
2966;434;0.0485;0.0114;0.00158;1.37;350
2968;434;0.0485;0.0114;0.00158;1.37;350
2970;434;0.0485;0.0114;0.00158;1.37;350
2972;434;0.0485;0.0114;0.00158;1.37;350
2974;434;0.0485;0.0114;0.00158;1.37;350
2976;434;0.0485;0.0114;0.00158;1.37;350
2978;434;0.0485;0.0114;0.00158;1.37;350
2980;434;0.0485;0.0114;0.00158;1.37;350
2982;434;0.0485;0.0114;0.00158;1.37;350
2984;434;0.0485;0.0114;0.00158;1.37;350
2986;434;0.0485;0.0114;0.00158;1.37;350
2988;434;0.0485;0.0114;0.00158;1.37;350
2990;434;0.0485;0.0114;0.00158;1.36;350
2992;434;0.0485;0.0114;0.00158;1.37;350
2994;434;0.0485;0.0114;0.00158;1.36;350
2996;433;0.0485;0.0114;0.00158;1.37;350
2998;433;0.0485;0.0114;0.00158;1.37;350
3000;433;0.0485;0.0114;0.00158;1.36;350
3002;433;0.0485;0.0114;0.00158;1.36;350
3004;433;0.0485;0.0114;0.00158;1.36;350
3006;433;0.0485;0.0114;0.00158;1.36;350
3008;433;0.0485;0.0114;0.00158;1.36;350
3010;433;0.0485;0.0114;0.00158;1.36;350
3012;433;0.0485;0.0114;0.00158;1.37;350
3014;433;0.0485;0.0114;0.00158;1.36;350
3016;433;0.0485;0.0114;0.00158;1.36;350
3018;433;0.0485;0.0114;0.00158;1.36;350
3020;433;0.0485;0.0114;0.00158;1.36;350
3022;433;0.0485;0.0114;0.00158;1.36;350
3024;433;0.0485;0.0114;0.00158;1.36;350
3026;433;0.0485;0.0114;0.00158;1.36;350
3028;433;0.0485;0.0114;0.00158;1.36;350
3030;433;0.0485;0.0114;0.00158;1.36;350
3032;433;0.0485;0.0114;0.00158;1.36;350
3034;433;0.0485;0.0114;0.00158;1.36;350
3036;433;0.0485;0.0114;0.00158;1.36;350
3038;433;0.0485;0.0114;0.00158;1.36;350
3040;433;0.0485;0.0114;0.00158;1.36;350
3042;433;0.0485;0.0114;0.00158;1.36;350
3044;433;0.0485;0.0114;0.00158;1.36;350
3046;433;0.0485;0.0114;0.00158;1.36;350
3048;433;0.0485;0.0114;0.00158;1.36;350
3050;433;0.0485;0.0114;0.00158;1.35;350
3052;433;0.0485;0.0114;0.00158;1.36;350
3054;433;0.0485;0.0114;0.00158;1.35;350
3056;433;0.0485;0.0114;0.00158;1.35;350
3058;433;0.0485;0.0114;0.00158;1.35;350
3060;433;0.0485;0.0114;0.00158;1.35;350
3062;433;0.0485;0.0114;0.00158;1.35;350
3064;433;0.0485;0.0114;0.00158;1.35;350
3066;433;0.0485;0.0114;0.00158;1.35;350
3068;433;0.0485;0.0114;0.00158;1.35;350
3070;433;0.0485;0.0114;0.00158;1.35;350
3072;433;0.0485;0.0114;0.00158;1.35;350
3074;433;0.0485;0.0114;0.00158;1.35;350
3076;433;0.0485;0.0114;0.00158;1.35;350
3078;433;0.0485;0.0114;0.00158;1.34;350
3080;433;0.0485;0.0114;0.00158;1.35;350
3082;433;0.0485;0.0114;0.00158;1.35;350
3084;433;0.0485;0.0114;0.00158;1.35;350
3086;433;0.0485;0.0114;0.00158;1.35;350
3088;433;0.0485;0.0114;0.00158;1.34;350
3090;433;0.0485;0.0114;0.00158;1.35;350
3092;433;0.0485;0.0114;0.00158;1.34;350
3094;433;0.0485;0.0114;0.00158;1.34;350
3096;433;0.0485;0.0114;0.00158;1.34;350
3098;433;0.0485;0.0114;0.00158;1.34;350
3100;432;0.0485;0.0114;0.00158;1.34;350
3102;432;0.0485;0.0114;0.00158;1.34;350
3104;432;0.0485;0.0114;0.00158;1.34;350
3106;432;0.0485;0.0114;0.00158;1.34;350
3108;432;0.0485;0.0114;0.00158;1.34;350
3110;432;0.0485;0.0114;0.00158;1.34;350
3112;432;0.0485;0.0114;0.00158;1.34;350
3114;432;0.0485;0.0114;0.00158;1.34;350
3116;432;0.0485;0.0114;0.00158;1.34;350
3118;432;0.0485;0.0114;0.00158;1.34;350
3120;432;0.0485;0.0114;0.00158;1.34;350
3122;432;0.0485;0.0114;0.00158;1.34;350
3124;432;0.0485;0.0114;0.00158;1.34;350
3126;432;0.0485;0.0114;0.00158;1.33;350
3128;432;0.0485;0.0114;0.00158;1.33;350
3130;432;0.0485;0.0114;0.00158;1.34;350
3132;432;0.0485;0.0114;0.00158;1.33;350
3134;432;0.0485;0.0114;0.00158;1.33;350
3136;432;0.0485;0.0114;0.00158;1.33;350
3138;432;0.0485;0.0114;0.00158;1.33;350
3140;432;0.0485;0.0114;0.00158;1.33;350
3142;432;0.0485;0.0114;0.00158;1.33;350
3144;432;0.0485;0.0114;0.00158;1.33;350
3146;431;0.0485;0.0114;0.00158;1.33;350
3148;431;0.0485;0.0114;0.00158;1.33;350
3150;431;0.0485;0.0114;0.00158;1.33;350
3152;431;0.0485;0.0114;0.00158;1.33;350
3154;431;0.0485;0.0114;0.00158;1.33;350
3156;431;0.0485;0.0114;0.00158;1.33;350
3158;431;0.0485;0.0114;0.00158;1.33;350
3160;431;0.0485;0.0114;0.00158;1.33;350
3162;431;0.0485;0.0114;0.00158;1.32;350
3164;431;0.0485;0.0114;0.00158;1.33;350
3166;431;0.0485;0.0114;0.00158;1.32;350
3168;431;0.0485;0.0114;0.00158;1.33;350
3170;431;0.0485;0.0114;0.00158;1.33;350
3172;431;0.0485;0.0114;0.00158;1.32;350
3174;431;0.0485;0.0114;0.00158;1.33;350
3176;431;0.0485;0.0114;0.00158;1.32;350
3178;431;0.0485;0.0114;0.00158;1.32;350
3180;431;0.0485;0.0114;0.00158;1.32;350
3182;431;0.0485;0.0114;0.00158;1.33;350
3184;431;0.0485;0.0114;0.00158;1.32;350
3186;431;0.0485;0.0114;0.00158;1.32;350
3188;431;0.0485;0.0114;0.00158;1.32;350
3190;431;0.0485;0.0114;0.00158;1.32;350
3192;431;0.0485;0.0114;0.00158;1.32;350
3194;430;0.0485;0.0114;0.00158;1.32;350
3196;430;0.0485;0.0114;0.00158;1.32;350
3198;430;0.0485;0.0114;0.00158;1.32;350
3200;430;0.0485;0.0114;0.00158;1.31;350
3202;430;0.0485;0.0114;0.00158;1.32;350
3204;430;0.0485;0.0114;0.00158;1.32;350
3206;430;0.0485;0.0114;0.00158;1.31;350
3208;430;0.0485;0.0114;0.00158;1.32;350
3210;430;0.0485;0.0114;0.00158;1.31;350
3212;430;0.0485;0.0114;0.00158;1.31;350
3214;430;0.0485;0.0114;0.00158;1.31;350
3216;429;0.0485;0.0114;0.00158;1.31;350
3218;429;0.0485;0.0114;0.00158;1.31;350
3220;429;0.0485;0.0114;0.00158;1.31;350
3222;429;0.0485;0.0114;0.00158;1.31;350
3224;429;0.0485;0.0114;0.00158;1.3;350
3226;429;0.0485;0.0114;0.00158;1.3;350
3228;429;0.0485;0.0114;0.00158;1.3;350
3230;429;0.0485;0.0114;0.00158;1.3;350
3232;429;0.0485;0.0114;0.00158;1.3;350
3234;429;0.0485;0.0114;0.00158;1.3;350
3236;429;0.0485;0.0114;0.00158;1.3;350
3238;429;0.0485;0.0114;0.00158;1.3;350
3240;429;0.0485;0.0114;0.00158;1.3;350
3242;428;0.0485;0.0114;0.00158;1.3;350
3244;428;0.0485;0.0114;0.00158;1.29;350
3246;428;0.0485;0.0114;0.00158;1.3;350
3248;428;0.0485;0.0114;0.00158;1.29;350
3250;428;0.0485;0.0114;0.00158;1.3;350
3252;428;0.0485;0.0114;0.00158;1.3;350
3254;428;0.0485;0.0114;0.00158;1.29;350
3256;428;0.0485;0.0114;0.00158;1.29;350
3258;428;0.0485;0.0114;0.00158;1.29;350
3260;428;0.0485;0.0114;0.00158;1.29;350
3262;428;0.0485;0.0114;0.00158;1.29;350
3264;428;0.0485;0.0114;0.00158;1.29;350
3266;428;0.0485;0.0114;0.00158;1.29;350
3268;428;0.0485;0.0114;0.00158;1.29;350
3270;428;0.0485;0.0114;0.00158;1.29;350
3272;428;0.0485;0.0114;0.00158;1.29;350
3274;428;0.0485;0.0114;0.00158;1.29;350
3276;428;0.0485;0.0114;0.00158;1.29;350
3278;428;0.0485;0.0114;0.00158;1.28;350
3280;428;0.0485;0.0114;0.00158;1.28;350
3282;428;0.0485;0.0114;0.00158;1.28;350
3284;428;0.0485;0.0114;0.00158;1.29;350
3286;428;0.0485;0.0114;0.00158;1.29;350
3288;428;0.0485;0.0114;0.00158;1.28;350
3290;428;0.0485;0.0114;0.00158;1.29;350
3292;428;0.0485;0.0114;0.00158;1.28;350
3294;428;0.0485;0.0114;0.00158;1.28;350
3296;427;0.0485;0.0114;0.00158;1.28;350
3298;427;0.0485;0.0114;0.00158;1.28;350
3300;427;0.0485;0.0114;0.00158;1.28;350
3302;427;0.0485;0.0114;0.00158;1.28;350
3304;427;0.0485;0.0114;0.00158;1.28;350
3306;427;0.0485;0.0114;0.00158;1.28;350
3308;427;0.0485;0.0114;0.00158;1.28;350
3310;427;0.0485;0.0114;0.00158;1.28;350
3312;427;0.0485;0.0114;0.00158;1.27;350
3314;427;0.0485;0.0114;0.00158;1.28;350
3316;427;0.0485;0.0114;0.00158;1.27;350
3318;427;0.0485;0.0114;0.00158;1.28;350
3320;427;0.0485;0.0114;0.00158;1.27;350
3322;427;0.0485;0.0114;0.00158;1.27;350
3324;427;0.0485;0.0114;0.00158;1.27;350
3326;427;0.0485;0.0114;0.00158;1.27;350
3328;426;0.0485;0.0114;0.00158;1.27;350
3330;427;0.0485;0.0114;0.00158;1.27;350
3332;427;0.0485;0.0114;0.00158;1.27;350
3334;426;0.0485;0.0114;0.00158;1.27;350
3336;427;0.0485;0.0114;0.00158;1.26;350
3338;427;0.0485;0.0114;0.00158;1.27;350
3340;426;0.0485;0.0114;0.00158;1.27;350
3342;426;0.0485;0.0114;0.00158;1.26;350
3344;426;0.0485;0.0114;0.00158;1.27;350
3346;426;0.0485;0.0114;0.00158;1.26;350
3348;426;0.0485;0.0114;0.00158;1.26;350
3350;426;0.0485;0.0114;0.00158;1.26;350
3352;426;0.0485;0.0114;0.00158;1.26;350
3354;426;0.0485;0.0114;0.00158;1.26;350
3356;426;0.0485;0.0114;0.00158;1.26;350
3358;426;0.0485;0.0114;0.00158;1.26;350
3360;426;0.0485;0.0114;0.00158;1.26;350
3362;426;0.0485;0.0114;0.00158;1.26;350
3364;426;0.0485;0.0114;0.00158;1.26;350
3366;426;0.0485;0.0114;0.00158;1.26;350
3368;426;0.0485;0.0114;0.00158;1.26;350
3370;426;0.0485;0.0114;0.00158;1.25;350
3372;426;0.0485;0.0114;0.00158;1.25;350
3374;426;0.0485;0.0114;0.00158;1.25;350
3376;426;0.0485;0.0114;0.00158;1.25;350
3378;426;0.0485;0.0114;0.00158;1.26;350
3380;426;0.0485;0.0114;0.00158;1.25;350
3382;426;0.0485;0.0114;0.00158;1.25;350
3384;426;0.0485;0.0114;0.00158;1.25;350
3386;426;0.0485;0.0114;0.00158;1.25;350
3388;426;0.0485;0.0114;0.00158;1.25;350
3390;426;0.0485;0.0114;0.00158;1.25;350
3392;426;0.0485;0.0114;0.00158;1.25;350
3394;426;0.0485;0.0114;0.00158;1.25;350
3396;426;0.0485;0.0114;0.00158;1.25;350
3398;426;0.0485;0.0114;0.00158;1.25;350
3400;426;0.0485;0.0114;0.00158;1.25;350
3402;426;0.0485;0.0114;0.00158;1.25;350
3404;426;0.0485;0.0114;0.00158;1.25;350
3406;426;0.0485;0.0114;0.00158;1.25;350
3408;426;0.0485;0.0114;0.00158;1.25;350
3410;426;0.0485;0.0114;0.00158;1.25;350
3412;426;0.0485;0.0114;0.00158;1.25;350
3414;426;0.0485;0.0114;0.00158;1.25;350
3416;426;0.0485;0.0114;0.00158;1.25;350
3418;426;0.0485;0.0114;0.00158;1.25;350
3420;426;0.0485;0.0114;0.00158;1.24;350
3422;426;0.0485;0.0114;0.00158;1.24;350
3424;427;0.0485;0.0114;0.00158;1.24;350
3426;426;0.0485;0.0114;0.00158;1.24;350
3428;427;0.0485;0.0114;0.00158;1.24;350
3430;427;0.0485;0.0114;0.00158;1.24;350
3432;427;0.0485;0.0114;0.00158;1.24;350
3434;427;0.0485;0.0114;0.00158;1.24;350
3436;427;0.0485;0.0114;0.00158;1.24;350
3438;427;0.0485;0.0114;0.00158;1.24;350
3440;427;0.0485;0.0114;0.00158;1.24;350
3442;427;0.0485;0.0114;0.00158;1.24;350
3444;427;0.0485;0.0114;0.00158;1.24;350
3446;427;0.0485;0.0114;0.00158;1.24;350
3448;427;0.0485;0.0114;0.00158;1.24;350
3450;427;0.0485;0.0114;0.00158;1.24;350
3452;427;0.0485;0.0114;0.00158;1.24;350
3454;427;0.0485;0.0114;0.00158;1.24;350
3456;427;0.0485;0.0114;0.00158;1.24;350
3458;427;0.0485;0.0114;0.00158;1.24;350
3460;427;0.0485;0.0114;0.00158;1.24;350
3462;427;0.0485;0.0114;0.00158;1.24;350
3464;427;0.0485;0.0114;0.00158;1.24;350
3466;427;0.0485;0.0114;0.00158;1.24;350
3468;427;0.0485;0.0114;0.00158;1.24;350
3470;427;0.0485;0.0114;0.00158;1.24;350
3472;427;0.0485;0.0101;0.00273;1.24;350
3474;427;0.0485;0.0100;0.00274;1.24;350
3476;428;0.0485;0.0101;0.00273;1.24;350
3478;428;0.0485;0.0101;0.00273;1.24;350
3480;428;0.0485;0.0101;0.00272;1.24;350
3482;428;0.0485;0.0101;0.00273;1.24;350
3484;428;0.0485;0.0101;0.00273;1.24;350
3486;428;0.0485;0.0101;0.00274;1.24;350
3488;428;0.0485;0.0101;0.00273;1.24;350
3490;428;0.0485;0.0101;0.00271;1.24;350
3492;428;0.0485;0.0101;0.0027;1.24;350
3494;428;0.0485;0.0101;0.00268;1.23;350
3496;428;0.0485;0.0102;0.00266;1.24;350
3498;428;0.0485;0.0101;0.00268;1.23;350
3500;429;0.0485;0.0102;0.00265;1.23;350
3502;429;0.0485;0.0102;0.00261;1.23;350
3504;429;0.0485;0.0102;0.0026;1.23;350
3506;429;0.0485;0.0103;0.00258;1.23;350
3508;429;0.0485;0.0103;0.00256;1.23;350
3510;429;0.0485;0.0103;0.00254;1.23;350
3512;429;0.0485;0.0103;0.00253;1.23;350
3514;429;0.0485;0.0104;0.0025;1.23;350
3516;429;0.0485;0.0104;0.00249;1.23;350
3518;429;0.0485;0.0104;0.00246;1.23;350
3520;429;0.0485;0.0104;0.00244;1.23;350
3522;429;0.0485;0.0105;0.00241;1.23;350
3524;430;0.0485;0.0105;0.00238;1.23;350
3526;430;0.0485;0.0105;0.00235;1.23;350
3528;430;0.0485;0.0106;0.00233;1.23;350
3530;430;0.0485;0.0106;0.00229;1.24;350
3532;430;0.0485;0.0106;0.00227;1.23;350
3534;430;0.0485;0.0107;0.00226;1.24;350
3536;430;0.0485;0.0107;0.00224;1.24;350
3538;430;0.0485;0.0107;0.00221;1.24;350
3540;430;0.0485;0.0107;0.00221;1.24;350
3542;430;0.0485;0.0108;0.00219;1.24;350
3544;430;0.0485;0.0108;0.00216;1.24;350
3546;430;0.0485;0.0108;0.00215;1.24;350
3548;431;0.0485;0.0108;0.00214;1.24;350
3550;431;0.0485;0.0108;0.00212;1.24;350
3552;431;0.0485;0.0108;0.00211;1.23;350
3554;431;0.0485;0.0109;0.00209;1.23;350
3556;431;0.0485;0.0109;0.00208;1.23;350
3558;431;0.0485;0.0109;0.00206;1.23;350
3560;431;0.0485;0.0109;0.00206;1.23;350
3562;431;0.0485;0.0109;0.00205;1.23;350
3564;431;0.0485;0.0109;0.00204;1.24;350
3566;431;0.0485;0.0109;0.00203;1.24;350
3568;431;0.0485;0.0109;0.00203;1.24;350
3570;431;0.0485;0.0109;0.00202;1.24;350
3572;431;0.0485;0.0110;0.002;1.23;350
3574;431;0.0485;0.0110;0.00199;1.23;350
3576;432;0.0485;0.0110;0.00198;1.23;350
3578;432;0.0485;0.0110;0.00199;1.23;350
3580;431;0.0485;0.0110;0.00197;1.23;350
3582;432;0.0485;0.0110;0.00197;1.23;350
3584;432;0.0485;0.0110;0.00196;1.23;350
3586;432;0.0485;0.0110;0.00193;1.23;350
3588;432;0.0485;0.0111;0.00191;1.23;350
3590;432;0.0485;0.0111;0.00192;1.23;350
3592;432;0.0485;0.0111;0.00192;1.23;350
3594;432;0.0485;0.0111;0.00192;1.23;350
3596;432;0.0485;0.0111;0.00192;1.23;350
3598;432;0.0485;0.0111;0.00191;1.23;350
3600;432;0.0485;0.0111;0.0019;1.23;350
3602;432;0.0485;0.0111;0.00188;1.23;350
3604;432;0.0485;0.0111;0.00186;1.23;350
3606;432;0.0485;0.0111;0.00186;1.23;350
3608;432;0.0485;0.0111;0.00187;1.23;350
3610;432;0.0485;0.0111;0.00187;1.23;350
3612;432;0.0485;0.0111;0.00187;1.23;350
3614;432;0.0485;0.0111;0.00187;1.23;350
3616;432;0.0485;0.0111;0.00185;1.23;350
3618;432;0.0485;0.0111;0.00186;1.23;350
3620;432;0.0485;0.0111;0.00187;1.23;350
3622;432;0.0485;0.0111;0.00187;1.23;350
3624;433;0.0485;0.0111;0.00185;1.23;350
3626;433;0.0485;0.0111;0.00185;1.23;350
3628;433;0.0485;0.0111;0.00187;1.23;350
3630;433;0.0485;0.0111;0.00187;1.23;350
3632;433;0.0485;0.0111;0.00187;1.23;350
3634;433;0.0485;0.0111;0.00186;1.23;350
3636;433;0.0485;0.0111;0.00185;1.23;350
3638;433;0.0485;0.0111;0.00186;1.23;350
3640;433;0.0485;0.0111;0.00186;1.23;350
3642;433;0.0485;0.0111;0.00185;1.23;350
3644;433;0.0485;0.0112;0.00183;1.23;350
3646;433;0.0485;0.0112;0.00182;1.23;350
3648;433;0.0485;0.0112;0.00183;1.23;350
3650;433;0.0485;0.0111;0.00184;1.23;350
3652;433;0.0485;0.0112;0.00181;1.23;350
3654;433;0.0485;0.0112;0.00182;1.23;350
3656;433;0.0485;0.0112;0.0018;1.23;350
3658;433;0.0485;0.0112;0.00182;1.23;350
3660;433;0.0485;0.0112;0.00181;1.23;350
3662;433;0.0485;0.0112;0.00179;1.23;350
3664;433;0.0485;0.0112;0.0018;1.23;350
3666;434;0.0485;0.0112;0.0018;1.23;350
3668;434;0.0485;0.0112;0.00181;1.23;350
3670;434;0.0485;0.0112;0.0018;1.23;350
3672;434;0.0485;0.0112;0.00178;1.23;350
3674;434;0.0485;0.0112;0.00179;1.23;350
3676;434;0.0485;0.0112;0.00181;1.23;350
3678;434;0.0485;0.0112;0.0018;1.23;350
3680;434;0.0485;0.0112;0.00179;1.23;350
3682;434;0.0485;0.0112;0.00181;1.23;350
3684;434;0.0485;0.0112;0.00182;1.23;350
3686;434;0.0485;0.0112;0.00179;1.23;350
3688;434;0.0485;0.0112;0.0018;1.23;350
3690;434;0.0485;0.0112;0.00181;1.23;350
3692;434;0.0485;0.0112;0.00181;1.23;350
3694;434;0.0485;0.0112;0.00182;1.23;350
3696;434;0.0485;0.0112;0.00182;1.23;350
3698;434;0.0485;0.0112;0.00182;1.23;350
3700;434;0.0485;0.0112;0.00182;1.23;350
3702;435;0.0485;0.0112;0.00183;1.23;350
3704;435;0.0485;0.0112;0.00179;1.23;350
3706;435;0.0485;0.0112;0.00181;1.23;350
3708;435;0.0485;0.0112;0.00183;1.23;350
3710;435;0.0485;0.0112;0.00182;1.23;350
3712;435;0.0485;0.0112;0.0018;1.23;350
3714;435;0.0485;0.0112;0.00181;1.23;350
3716;435;0.0485;0.0112;0.00183;1.23;350
3718;435;0.0485;0.0112;0.00183;1.23;350
3720;435;0.0485;0.0112;0.00181;1.23;350
3722;435;0.0485;0.0112;0.0018;1.23;350
3724;435;0.0485;0.0112;0.00181;1.23;350
3726;435;0.0485;0.0112;0.00182;1.23;350
3728;435;0.0485;0.0112;0.0018;1.23;350
3730;435;0.0485;0.0112;0.0018;1.23;350
3732;435;0.0485;0.0112;0.00178;1.23;350
3734;435;0.0485;0.0112;0.00179;1.23;350
3736;435;0.0485;0.0112;0.00181;1.23;350
3738;435;0.0485;0.0112;0.0018;1.23;350
3740;435;0.0485;0.0112;0.00181;1.23;350
3742;435;0.0485;0.0112;0.0018;1.23;350
3744;435;0.0485;0.0112;0.0018;1.23;350
3746;435;0.0485;0.0112;0.0018;1.23;350
3748;435;0.0485;0.0112;0.00182;1.23;350
3750;435;0.0485;0.0112;0.00181;1.23;350
3752;435;0.0485;0.0112;0.0018;1.23;350
3754;435;0.0485;0.0112;0.00182;1.23;350
3756;436;0.0485;0.0112;0.0018;1.23;350
3758;436;0.0485;0.0112;0.00179;1.23;350
3760;436;0.0485;0.0112;0.00181;1.23;350
3762;436;0.0485;0.0112;0.00179;1.23;350
3764;436;0.0485;0.0112;0.0018;1.23;350
3766;436;0.0485;0.0112;0.00182;1.23;350
3768;436;0.0485;0.0112;0.00182;1.23;350
3770;436;0.0485;0.0112;0.00181;1.23;350
3772;436;0.0485;0.0112;0.00181;1.23;350
3774;436;0.0485;0.0112;0.00179;1.23;350
3776;436;0.0485;0.0112;0.00182;1.23;350
3778;436;0.0485;0.0112;0.00181;1.23;350
3780;436;0.0485;0.0112;0.00181;1.23;350
3782;436;0.0485;0.0112;0.00179;1.23;350
3784;436;0.0485;0.0112;0.0018;1.23;350
3786;436;0.0485;0.0112;0.00179;1.23;350
3788;436;0.0485;0.0112;0.00178;1.23;350
3790;436;0.0485;0.0112;0.0018;1.23;350
3792;436;0.0485;0.0112;0.0018;1.23;350
3794;436;0.0485;0.0112;0.00179;1.23;350
3796;436;0.0485;0.0112;0.00182;1.22;350
3798;436;0.0485;0.0112;0.00179;1.23;350
3800;436;0.0485;0.0112;0.00181;1.23;350
3802;436;0.0485;0.0112;0.00181;1.23;350
3804;436;0.0485;0.0112;0.00178;1.23;350
3806;436;0.0485;0.0112;0.0018;1.23;350
3808;436;0.0485;0.0112;0.00178;1.23;350
3810;436;0.0485;0.0112;0.0018;1.23;350
3812;436;0.0485;0.0112;0.00178;1.23;350
3814;436;0.0485;0.0112;0.00179;1.23;350
3816;436;0.0485;0.0112;0.00178;1.23;350
3818;436;0.0485;0.0112;0.00179;1.23;350
3820;437;0.0485;0.0112;0.00178;1.23;350
3822;437;0.0485;0.0112;0.00178;1.23;350
3824;437;0.0485;0.0112;0.00178;1.23;350
3826;436;0.0485;0.0112;0.00178;1.23;350
3828;436;0.0485;0.0112;0.00178;1.23;350
3830;437;0.0485;0.0112;0.00178;1.23;350
3832;437;0.0485;0.0112;0.00178;1.23;350
3834;437;0.0485;0.0112;0.00177;1.23;350
3836;437;0.0485;0.0112;0.00178;1.23;350
3838;437;0.0485;0.0112;0.00177;1.23;350
3840;437;0.0485;0.0112;0.00179;1.22;350
3842;437;0.0485;0.0112;0.00179;1.23;350
3844;437;0.0485;0.0112;0.0018;1.22;350
3846;437;0.0485;0.0112;0.00178;1.22;350
3848;437;0.0485;0.0112;0.00179;1.22;350
3850;437;0.0485;0.0112;0.00179;1.23;350
3852;437;0.0485;0.0112;0.00177;1.23;350
3854;437;0.0485;0.0112;0.00178;1.23;350
3856;437;0.0485;0.0112;0.00178;1.23;350
3858;437;0.0485;0.0112;0.00179;1.23;350
3860;437;0.0485;0.0112;0.00179;1.22;350
3862;437;0.0485;0.0112;0.00176;1.23;350
3864;437;0.0485;0.0112;0.00178;1.22;350
3866;437;0.0485;0.0112;0.00178;1.23;350
3868;437;0.0485;0.0112;0.0018;1.22;350
3870;437;0.0485;0.0112;0.00176;1.23;350
3872;437;0.0485;0.0112;0.00178;1.22;350
3874;437;0.0485;0.0112;0.00176;1.23;350
3876;437;0.0485;0.0112;0.00178;1.23;350
3878;437;0.0485;0.0112;0.00176;1.22;350
3880;437;0.0485;0.0112;0.00176;1.22;350
3882;437;0.0485;0.0112;0.00176;1.22;350
3884;437;0.0485;0.0112;0.00178;1.22;350
3886;437;0.0485;0.0112;0.00175;1.22;350
3888;437;0.0485;0.0112;0.00177;1.23;350
3890;437;0.0485;0.0112;0.00176;1.22;350
3892;437;0.0485;0.0112;0.00176;1.23;350
3894;437;0.0485;0.0112;0.00177;1.23;350
3896;437;0.0485;0.0112;0.00177;1.23;350
3898;437;0.0485;0.0112;0.00176;1.22;350
3900;437;0.0485;0.0112;0.00177;1.22;350
3902;437;0.0485;0.0112;0.00176;1.23;350
3904;437;0.0485;0.0112;0.00177;1.22;350
3906;437;0.0485;0.0112;0.00178;1.23;350
3908;437;0.0485;0.0112;0.00177;1.22;350
3910;437;0.0485;0.0112;0.00178;1.23;350
3912;437;0.0485;0.0112;0.00177;1.22;350
3914;437;0.0485;0.0112;0.00177;1.22;350
3916;437;0.0485;0.0112;0.00177;1.22;350
3918;438;0.0485;0.0112;0.00179;1.22;350
3920;438;0.0485;0.0112;0.00177;1.22;350
3922;438;0.0485;0.0112;0.00178;1.22;350
3924;437;0.0485;0.0112;0.00178;1.23;350
3926;438;0.0485;0.0112;0.00177;1.22;350
3928;438;0.0485;0.0112;0.00177;1.22;350
3930;438;0.0485;0.0112;0.00179;1.22;350
3932;438;0.0485;0.0112;0.00179;1.22;350
3934;438;0.0485;0.0112;0.00178;1.22;350
3936;438;0.0485;0.0112;0.00176;1.22;350
3938;438;0.0485;0.0112;0.00178;1.23;350
3940;438;0.0485;0.0112;0.00176;1.22;350
3942;438;0.0485;0.0112;0.00177;1.22;350
3944;438;0.0485;0.0112;0.00176;1.23;350
3946;438;0.0485;0.0112;0.00178;1.22;350
3948;438;0.0485;0.0112;0.00177;1.22;350
3950;438;0.0485;0.0112;0.00178;1.22;350
3952;438;0.0485;0.0112;0.00178;1.23;350
3954;438;0.0485;0.0112;0.00177;1.22;350
3956;438;0.0485;0.0112;0.00178;1.22;350
3958;438;0.0485;0.0112;0.00177;1.22;350
3960;438;0.0485;0.0112;0.00176;1.22;350
3962;438;0.0485;0.0112;0.00175;1.22;350
3964;438;0.0485;0.0112;0.00178;1.22;350
3966;438;0.0485;0.0112;0.00178;1.22;350
3968;438;0.0485;0.0112;0.00177;1.22;350
3970;438;0.0485;0.0112;0.00178;1.22;350
3972;438;0.0485;0.0112;0.00176;1.22;350
3974;438;0.0485;0.0112;0.00177;1.22;350
3976;438;0.0485;0.0112;0.00178;1.22;350
3978;438;0.0485;0.0112;0.00176;1.22;350
3980;438;0.0485;0.0112;0.00177;1.22;350
3982;438;0.0485;0.0112;0.00177;1.22;350
3984;438;0.0485;0.0112;0.00177;1.22;350
3986;438;0.0485;0.0112;0.00178;1.22;350
3988;438;0.0485;0.0112;0.00178;1.23;350
3990;438;0.0485;0.0112;0.00178;1.22;350
3992;439;0.0485;0.0112;0.00178;1.22;350
3994;438;0.0485;0.0112;0.00179;1.22;350
3996;439;0.0485;0.0112;0.00177;1.22;350
3998;439;0.0485;0.0112;0.0018;1.22;350
4000;439;0.0485;0.0112;0.00178;1.22;350
4002;439;0.0485;0.0112;0.0018;1.22;350
4004;439;0.0485;0.0112;0.00179;1.22;350
4006;438;0.0485;0.0112;0.00179;1.22;350
4008;439;0.0485;0.0112;0.0018;1.22;350
4010;439;0.0485;0.0112;0.00179;1.22;350
4012;439;0.0485;0.0112;0.0018;1.22;350
4014;439;0.0485;0.0112;0.00177;1.22;350
4016;439;0.0485;0.0112;0.00177;1.22;350
4018;439;0.0485;0.0112;0.00179;1.22;350
4020;439;0.0485;0.0112;0.00178;1.22;350
4022;439;0.0485;0.0112;0.00179;1.22;350
4024;439;0.0485;0.0112;0.00178;1.22;350
4026;439;0.0485;0.0112;0.00177;1.23;350
4028;439;0.0485;0.0112;0.00179;1.23;350
4030;439;0.0485;0.0112;0.00177;1.22;350
4032;439;0.0485;0.0112;0.00179;1.22;350
4034;439;0.0485;0.0112;0.00179;1.22;350
4036;439;0.0485;0.0112;0.00179;1.23;350
4038;439;0.0485;0.0112;0.00177;1.22;350
4040;439;0.0485;0.0112;0.00177;1.22;350
4042;439;0.0485;0.0112;0.00178;1.22;350
4044;439;0.0485;0.0112;0.00179;1.22;350
4046;439;0.0485;0.0112;0.00179;1.22;350
4048;439;0.0485;0.0112;0.00178;1.22;350
4050;439;0.0485;0.0112;0.0018;1.22;350
4052;439;0.0485;0.0112;0.00179;1.22;350
4054;439;0.0485;0.0112;0.00177;1.22;350
4056;439;0.0485;0.0112;0.00177;1.22;350
4058;439;0.0485;0.0112;0.00178;1.22;350
4060;439;0.0485;0.0112;0.00176;1.22;350
4062;439;0.0485;0.0112;0.00179;1.22;350
4064;439;0.0485;0.0112;0.00176;1.22;350
4066;439;0.0485;0.0112;0.00176;1.22;350
4068;439;0.0485;0.0112;0.00176;1.22;350
4070;439;0.0485;0.0112;0.00177;1.22;350
4072;439;0.0485;0.0112;0.00177;1.22;350
4074;439;0.0485;0.0112;0.00177;1.22;350
4076;439;0.0485;0.0112;0.00178;1.23;350
4078;439;0.0485;0.0112;0.00177;1.22;350
4080;439;0.0485;0.0112;0.00179;1.22;350
4082;439;0.0485;0.0112;0.00179;1.22;350
4084;439;0.0485;0.0112;0.00179;1.22;350
4086;439;0.0485;0.0112;0.00179;1.22;350
4088;439;0.0485;0.0112;0.0018;1.22;350
4090;439;0.0485;0.0112;0.0018;1.22;350
4092;439;0.0485;0.0112;0.00178;1.22;350
4094;439;0.0485;0.0112;0.00178;1.22;350
4096;439;0.0485;0.0112;0.00179;1.22;350
4098;439;0.0485;0.0112;0.00178;1.22;350
4100;439;0.0485;0.0112;0.00178;1.22;350
4102;439;0.0485;0.0112;0.00179;1.22;350
4104;439;0.0485;0.0112;0.00177;1.22;350
4106;439;0.0485;0.0112;0.00178;1.22;350
4108;439;0.0485;0.0112;0.00177;1.22;350
4110;440;0.0485;0.0112;0.00177;1.22;350
4112;439;0.0485;0.0112;0.00178;1.22;350
4114;439;0.0485;0.0112;0.00175;1.22;350
4116;439;0.0485;0.0112;0.00177;1.22;350
4118;439;0.0485;0.0112;0.00175;1.22;350
4120;439;0.0485;0.0112;0.00177;1.22;350
4122;439;0.0485;0.0112;0.00176;1.22;350
4124;439;0.0485;0.0112;0.00177;1.22;350
4126;439;0.0485;0.0112;0.00176;1.22;350
4128;439;0.0485;0.0112;0.00176;1.22;350
4130;439;0.0485;0.0112;0.00177;1.22;350
4132;439;0.0485;0.0112;0.00175;1.22;350
4134;439;0.0485;0.0112;0.00175;1.22;350
4136;439;0.0485;0.0112;0.00178;1.22;350
4138;439;0.0485;0.0112;0.00177;1.22;350
4140;439;0.0485;0.0112;0.00178;1.22;350
4142;439;0.0485;0.0112;0.00178;1.22;350
4144;439;0.0485;0.0112;0.00178;1.22;350
4146;439;0.0485;0.0112;0.00177;1.22;350
4148;439;0.0485;0.0112;0.00177;1.22;350
4150;439;0.0485;0.0112;0.0018;1.22;350
4152;439;0.0485;0.0112;0.00177;1.22;350
4154;439;0.0485;0.0112;0.00179;1.22;350
4156;439;0.0485;0.0112;0.00177;1.22;350
4158;439;0.0485;0.0112;0.00178;1.22;350
4160;439;0.0485;0.0112;0.00176;1.22;350
4162;439;0.0485;0.0112;0.00178;1.22;350
4164;439;0.0485;0.0112;0.00176;1.22;350
4166;439;0.0485;0.0112;0.00176;1.22;350
4168;439;0.0485;0.0112;0.00176;1.22;350
4170;439;0.0485;0.0112;0.00178;1.22;350
4172;439;0.0485;0.0112;0.00177;1.22;350
4174;439;0.0485;0.0112;0.00177;1.22;350
4176;439;0.0485;0.0112;0.00178;1.22;350
4178;439;0.0485;0.0112;0.00178;1.22;350
4180;439;0.0485;0.0112;0.00175;1.22;350
4182;439;0.0485;0.0112;0.00177;1.22;350
4184;439;0.0485;0.0112;0.00176;1.22;350
4186;439;0.0485;0.0112;0.00176;1.22;350
4188;439;0.0485;0.0112;0.00176;1.22;350
4190;439;0.0485;0.0113;0.00174;1.22;350
4192;439;0.0485;0.0112;0.00176;1.22;350
4194;439;0.0485;0.0112;0.00175;1.22;350
4196;439;0.0485;0.0112;0.00176;1.22;350
4198;439;0.0485;0.0112;0.00176;1.22;350
4200;439;0.0485;0.0112;0.00176;1.22;350
4202;439;0.0485;0.0112;0.00177;1.22;350
4204;439;0.0485;0.0112;0.00175;1.22;350
4206;439;0.0485;0.0112;0.00178;1.22;350
4208;439;0.0485;0.0112;0.00179;1.22;350
4210;439;0.0485;0.0112;0.00177;1.22;350
4212;439;0.0485;0.0112;0.00178;1.22;350
4214;440;0.0485;0.0112;0.00178;1.22;350
4216;439;0.0485;0.0112;0.00179;1.22;350
4218;440;0.0485;0.0112;0.0018;1.22;350
4220;439;0.0485;0.0112;0.00179;1.22;350
4222;440;0.0485;0.0112;0.00177;1.21;350
4224;440;0.0485;0.0112;0.00178;1.22;350
4226;439;0.0485;0.0112;0.00177;1.22;350
4228;440;0.0485;0.0112;0.00179;1.22;350
4230;439;0.0485;0.0112;0.00179;1.22;350
4232;439;0.0485;0.0112;0.00178;1.22;350
4234;440;0.0485;0.0112;0.00178;1.22;350
4236;440;0.0485;0.0112;0.00179;1.22;350
4238;440;0.0485;0.0112;0.00177;1.21;350
4240;440;0.0485;0.0112;0.0018;1.22;350
4242;439;0.0485;0.0112;0.0018;1.22;350
4244;440;0.0485;0.0112;0.00178;1.22;350
4246;440;0.0485;0.0112;0.00179;1.22;350
4248;440;0.0485;0.0112;0.00178;1.21;350
4250;440;0.0485;0.0112;0.00178;1.22;350
4252;440;0.0485;0.0112;0.00178;1.21;350
4254;440;0.0485;0.0112;0.00179;1.21;350
4256;440;0.0485;0.0112;0.00179;1.22;350
4258;440;0.0485;0.0112;0.00178;1.21;350
4260;440;0.0485;0.0112;0.00176;1.22;350
4262;440;0.0485;0.0112;0.00178;1.22;350
4264;440;0.0485;0.0112;0.00178;1.22;350
4266;440;0.0485;0.0112;0.00178;1.22;350
4268;440;0.0485;0.0112;0.00179;1.22;350
4270;440;0.0485;0.0112;0.00178;1.22;350
4272;440;0.0485;0.0112;0.00177;1.21;350
4274;440;0.0485;0.0112;0.00179;1.22;350
4276;440;0.0485;0.0112;0.00178;1.22;350
4278;440;0.0485;0.0112;0.00177;1.22;350
4280;440;0.0485;0.0112;0.00178;1.22;350
4282;440;0.0485;0.0112;0.00177;1.22;350
4284;440;0.0485;0.0112;0.00178;1.22;350
4286;440;0.0485;0.0112;0.00178;1.22;350
4288;440;0.0485;0.0112;0.00178;1.22;350
4290;440;0.0485;0.0112;0.00177;1.22;350
4292;440;0.0485;0.0112;0.00178;1.22;350
4294;440;0.0485;0.0112;0.00177;1.22;350
4296;440;0.0485;0.0112;0.00179;1.22;350
4298;440;0.0485;0.0112;0.00176;1.22;350
4300;440;0.0485;0.0112;0.00177;1.22;350
4302;440;0.0485;0.0112;0.00177;1.22;350
4304;440;0.0485;0.0112;0.00178;1.22;350
4306;440;0.0485;0.0112;0.00178;1.22;350
4308;440;0.0485;0.0112;0.00176;1.22;350
4310;440;0.0485;0.0112;0.00179;1.22;350
4312;440;0.0485;0.0112;0.00176;1.22;350
4314;440;0.0485;0.0112;0.00177;1.22;350
4316;440;0.0485;0.0112;0.00178;1.22;350
4318;440;0.0485;0.0112;0.00175;1.22;350
4320;440;0.0485;0.0112;0.00178;1.22;350
4322;441;0.0485;0.0112;0.00177;1.22;350
4324;440;0.0485;0.0112;0.00176;1.22;350
4326;440;0.0485;0.0112;0.00179;1.22;350
4328;441;0.0485;0.0112;0.00178;1.22;350
4330;441;0.0485;0.0112;0.00177;1.22;350
4332;441;0.0485;0.0112;0.00176;1.22;350
4334;441;0.0485;0.0112;0.00178;1.22;350
4336;441;0.0485;0.0112;0.00178;1.22;350
4338;441;0.0485;0.0112;0.00176;1.22;350
4340;441;0.0485;0.0112;0.00177;1.22;350
4342;441;0.0485;0.0112;0.00177;1.22;350
4344;441;0.0485;0.0112;0.00177;1.22;350
4346;441;0.0485;0.0112;0.00176;1.22;350
4348;441;0.0485;0.0112;0.00176;1.22;350
4350;441;0.0485;0.0112;0.00175;1.22;350
4352;441;0.0485;0.0112;0.00177;1.22;350
4354;441;0.0485;0.0112;0.00176;1.22;350
4356;441;0.0485;0.0113;0.00174;1.22;350
4358;441;0.0485;0.0112;0.00177;1.22;350
4360;441;0.0485;0.0112;0.00176;1.22;350
4362;441;0.0485;0.0112;0.00177;1.22;350
4364;441;0.0485;0.0112;0.00178;1.22;350
4366;441;0.0485;0.0112;0.00177;1.22;350
4368;441;0.0485;0.0112;0.00178;1.22;350
4370;441;0.0485;0.0112;0.00178;1.22;350
4372;441;0.0485;0.0112;0.00176;1.22;350
4374;441;0.0485;0.0112;0.00179;1.22;350
4376;441;0.0485;0.0112;0.00179;1.22;350
4378;441;0.0485;0.0112;0.00178;1.22;350
4380;441;0.0485;0.0112;0.00179;1.22;350
4382;441;0.0485;0.0112;0.00179;1.22;350
4384;441;0.0485;0.0112;0.00178;1.22;350
4386;441;0.0485;0.0112;0.00178;1.22;350
4388;441;0.0485;0.0112;0.00177;1.22;350
4390;441;0.0485;0.0112;0.00178;1.22;350
4392;441;0.0485;0.0112;0.00178;1.22;350
4394;441;0.0485;0.0112;0.00178;1.22;350
4396;441;0.0485;0.0112;0.00179;1.22;350
4398;441;0.0485;0.0112;0.00179;1.22;350
4400;441;0.0485;0.0112;0.00178;1.22;350
4402;441;0.0485;0.0112;0.00177;1.22;350
4404;441;0.0485;0.0112;0.00177;1.22;350
4406;441;0.0485;0.0112;0.00178;1.22;350
4408;441;0.0485;0.0112;0.00179;1.22;350
4410;441;0.0485;0.0112;0.00179;1.22;350
4412;442;0.0485;0.0112;0.00179;1.22;350
4414;442;0.0485;0.0112;0.00176;1.22;350
4416;442;0.0485;0.0112;0.00177;1.22;350
4418;442;0.0485;0.0112;0.00177;1.22;350
4420;441;0.0485;0.0112;0.00176;1.22;350
4422;442;0.0485;0.0112;0.00177;1.22;350
4424;441;0.0485;0.0112;0.00177;1.22;350
4426;441;0.0485;0.0112;0.00177;1.22;350
4428;441;0.0485;0.0112;0.00177;1.22;350
4430;441;0.0485;0.0112;0.00177;1.22;350
4432;441;0.0485;0.0112;0.00176;1.22;350
4434;441;0.0485;0.0112;0.00177;1.22;350
4436;441;0.0485;0.0112;0.00175;1.22;350
4438;441;0.0485;0.0113;0.00174;1.22;350
4440;441;0.0485;0.0112;0.00175;1.22;350
4442;441;0.0485;0.0112;0.00176;1.22;350
4444;441;0.0485;0.0112;0.00176;1.22;350
4446;442;0.0485;0.0112;0.00177;1.22;350
4448;441;0.0485;0.0112;0.00176;1.22;350
4450;441;0.0485;0.0112;0.00174;1.22;350
4452;441;0.0485;0.0112;0.00175;1.22;350
4454;442;0.0485;0.0112;0.00176;1.22;350
4456;441;0.0485;0.0112;0.00178;1.22;350
4458;441;0.0485;0.0112;0.00178;1.22;350
4460;441;0.0485;0.0112;0.00177;1.22;350
4462;441;0.0485;0.0112;0.00178;1.22;350
4464;441;0.0485;0.0112;0.00178;1.22;350
4466;441;0.0485;0.0112;0.00178;1.22;350
4468;441;0.0485;0.0112;0.00179;1.22;350
4470;441;0.0485;0.0112;0.00176;1.22;350
4472;441;0.0485;0.0112;0.00178;1.22;350
4474;441;0.0485;0.0112;0.00177;1.22;350
4476;441;0.0485;0.0112;0.00178;1.22;350
4478;441;0.0485;0.0112;0.00178;1.22;350
4480;441;0.0485;0.0112;0.00177;1.22;350
4482;441;0.0485;0.0112;0.00177;1.22;350
4484;441;0.0485;0.0112;0.00177;1.22;350
4486;441;0.0485;0.0112;0.00176;1.22;350
4488;441;0.0485;0.0112;0.00176;1.22;350
4490;441;0.0485;0.0112;0.00177;1.22;350
4492;441;0.0485;0.0112;0.00177;1.22;350
4494;441;0.0485;0.0112;0.00176;1.22;350
4496;441;0.0485;0.0112;0.00175;1.22;350
4498;441;0.0485;0.0112;0.00176;1.22;350
4500;441;0.0485;0.0112;0.00178;1.22;350
4502;441;0.0485;0.0112;0.00176;1.22;350
4504;441;0.0485;0.0112;0.00176;1.22;350
4506;441;0.0485;0.0112;0.00177;1.22;350
4508;441;0.0485;0.0112;0.00175;1.22;350
4510;441;0.0485;0.0113;0.00174;1.22;350
4512;441;0.0485;0.0112;0.00176;1.22;350
4514;441;0.0485;0.0112;0.00177;1.22;350
4516;441;0.0485;0.0112;0.00178;1.22;350
4518;441;0.0485;0.0112;0.00177;1.22;350
4520;441;0.0485;0.0112;0.00177;1.22;350
4522;441;0.0485;0.0112;0.00177;1.22;350
4524;441;0.0485;0.0112;0.00175;1.22;350
4526;441;0.0485;0.0112;0.00175;1.22;350
4528;441;0.0485;0.0112;0.00177;1.22;350
4530;441;0.0485;0.0112;0.00177;1.22;350
4532;441;0.0485;0.0112;0.00176;1.22;350
4534;441;0.0485;0.0112;0.00177;1.22;350
4536;441;0.0485;0.0112;0.00177;1.22;350
4538;441;0.0485;0.0112;0.00177;1.22;350
4540;441;0.0485;0.0112;0.00177;1.22;350
4542;441;0.0485;0.0112;0.00176;1.22;350
4544;441;0.0485;0.0112;0.00177;1.22;350
4546;441;0.0485;0.0112;0.00176;1.22;350
4548;441;0.0485;0.0113;0.00174;1.22;350
4550;441;0.0485;0.0112;0.00178;1.22;350
4552;441;0.0485;0.0112;0.00177;1.22;350
4554;441;0.0485;0.0112;0.00176;1.22;350
4556;441;0.0485;0.0112;0.00175;1.22;350
4558;441;0.0485;0.0112;0.00175;1.22;350
4560;441;0.0485;0.0112;0.00175;1.22;350
4562;441;0.0485;0.0112;0.00176;1.22;350
4564;441;0.0485;0.0112;0.00175;1.22;350
4566;441;0.0485;0.0113;0.00174;1.22;350
4568;441;0.0485;0.0112;0.00175;1.22;350
4570;441;0.0485;0.0112;0.00175;1.22;350
4572;441;0.0485;0.0112;0.00175;1.22;350
4574;441;0.0485;0.0113;0.00173;1.22;350
4576;442;0.0485;0.0112;0.00175;1.22;350
4578;441;0.0485;0.0112;0.00176;1.22;350
4580;441;0.0485;0.0113;0.00174;1.22;350
4582;441;0.0485;0.0112;0.00176;1.22;350
4584;442;0.0485;0.0113;0.00173;1.22;350
4586;442;0.0485;0.0113;0.00173;1.22;350
4588;442;0.0485;0.0112;0.00177;1.22;350
4590;441;0.0485;0.0112;0.00177;1.22;350
4592;442;0.0485;0.0112;0.00177;1.22;350
4594;442;0.0485;0.0112;0.00177;1.22;350
4596;442;0.0485;0.0112;0.00177;1.22;350
4598;442;0.0485;0.0112;0.00177;1.22;350
4600;442;0.0485;0.0112;0.00176;1.22;350
4602;442;0.0485;0.0112;0.00177;1.22;350
4604;442;0.0485;0.0112;0.00176;1.22;350
4606;442;0.0485;0.0112;0.00176;1.22;350
4608;442;0.0485;0.0112;0.00176;1.22;350
4610;442;0.0485;0.0112;0.00177;1.22;350
4612;442;0.0485;0.0112;0.00178;1.22;350
4614;441;0.0485;0.0112;0.00176;1.22;350
4616;442;0.0485;0.0112;0.00175;1.22;350
4618;442;0.0485;0.0112;0.00175;1.22;350
4620;442;0.0485;0.0112;0.00175;1.22;350
4622;442;0.0485;0.0112;0.00176;1.22;350
4624;442;0.0485;0.0112;0.00177;1.22;350
4626;442;0.0485;0.0112;0.00176;1.22;350
4628;442;0.0485;0.0112;0.00175;1.22;350
4630;442;0.0485;0.0112;0.00176;1.22;350
4632;442;0.0485;0.0112;0.00177;1.22;350
4634;442;0.0485;0.0112;0.00176;1.22;350
4636;442;0.0485;0.0112;0.00176;1.22;350
4638;442;0.0485;0.0112;0.00177;1.22;350
4640;442;0.0485;0.0112;0.00176;1.22;350
4642;442;0.0485;0.0113;0.00174;1.22;350
4644;442;0.0485;0.0112;0.00175;1.22;350
4646;442;0.0485;0.0112;0.00175;1.22;350
4648;442;0.0485;0.0112;0.00175;1.22;350
4650;442;0.0485;0.0113;0.00174;1.23;350
4652;442;0.0485;0.0113;0.00174;1.22;350
4654;442;0.0485;0.0113;0.00172;1.22;350
4656;442;0.0485;0.0113;0.00173;1.22;350
4658;442;0.0485;0.0113;0.00172;1.22;350
4660;442;0.0485;0.0113;0.00171;1.22;350
4662;442;0.0485;0.0113;0.00171;1.22;350
4664;442;0.0485;0.0113;0.00171;1.22;350
4666;442;0.0485;0.0113;0.00172;1.22;350
4668;442;0.0485;0.0113;0.00172;1.22;350
4670;442;0.0485;0.0113;0.00171;1.22;350
4672;442;0.0485;0.0113;0.00171;1.22;350
4674;442;0.0485;0.0113;0.00171;1.22;350
4676;442;0.0485;0.0113;0.00172;1.22;350
4678;442;0.0485;0.0113;0.00172;1.22;350
4680;442;0.0485;0.0113;0.00173;1.22;350
4682;442;0.0485;0.0113;0.00174;1.22;350
4684;442;0.0485;0.0113;0.00174;1.22;350
4686;442;0.0485;0.0113;0.00174;1.22;350
4688;442;0.0485;0.0113;0.00172;1.22;350
4690;442;0.0485;0.0113;0.00173;1.22;350
4692;442;0.0485;0.0113;0.00173;1.22;350
4694;442;0.0485;0.0113;0.00172;1.22;350
4696;442;0.0485;0.0113;0.00172;1.22;350
4698;442;0.0485;0.0113;0.00174;1.22;350
4700;442;0.0485;0.0113;0.00173;1.22;350
4702;442;0.0485;0.0113;0.00173;1.22;350
4704;442;0.0485;0.0113;0.00171;1.22;350
4706;442;0.0485;0.0113;0.0017;1.22;350
4708;442;0.0485;0.0113;0.00173;1.22;350
4710;442;0.0485;0.0113;0.00174;1.22;350
4712;442;0.0485;0.0113;0.00173;1.22;350
4714;442;0.0485;0.0113;0.00173;1.22;350
4716;442;0.0485;0.0113;0.00173;1.22;350
4718;442;0.0485;0.0113;0.00174;1.22;350
4720;442;0.0485;0.0113;0.00174;1.22;350
4722;442;0.0485;0.0113;0.00172;1.22;350
4724;442;0.0485;0.0113;0.00173;1.22;350
4726;442;0.0485;0.0113;0.00172;1.22;350
4728;442;0.0485;0.0113;0.00172;1.22;350
4730;442;0.0485;0.0113;0.00172;1.22;350
4732;442;0.0485;0.0113;0.00171;1.22;350
4734;442;0.0485;0.0113;0.00171;1.22;350
4736;442;0.0485;0.0113;0.00171;1.22;350
4738;442;0.0485;0.0113;0.00172;1.22;350
4740;442;0.0485;0.0113;0.00173;1.22;350
4742;442;0.0485;0.0113;0.0017;1.22;350
4744;442;0.0485;0.0113;0.0017;1.22;350
4746;442;0.0485;0.0113;0.00171;1.22;350
4748;442;0.0485;0.0113;0.00173;1.22;350
4750;442;0.0485;0.0113;0.00173;1.22;350
4752;442;0.0485;0.0113;0.00173;1.22;350
4754;442;0.0485;0.0113;0.00173;1.22;350
4756;442;0.0485;0.0113;0.00173;1.22;350
4758;442;0.0485;0.0113;0.00174;1.22;350
4760;442;0.0485;0.0113;0.00173;1.22;350
4762;442;0.0485;0.0113;0.00173;1.22;350
4764;442;0.0485;0.0113;0.00173;1.22;350
4766;442;0.0485;0.0113;0.00173;1.22;350
4768;442;0.0485;0.0113;0.00173;1.22;350
4770;442;0.0485;0.0113;0.00172;1.22;350
4772;442;0.0485;0.0113;0.00172;1.22;350
4774;442;0.0485;0.0113;0.00173;1.22;350
4776;442;0.0485;0.0113;0.00173;1.22;350
4778;442;0.0485;0.0113;0.00173;1.22;350
4780;442;0.0485;0.0113;0.00171;1.22;350
4782;442;0.0485;0.0113;0.00171;1.22;350
4784;442;0.0485;0.0113;0.00171;1.22;350
4786;442;0.0485;0.0113;0.00171;1.22;350
4788;442;0.0485;0.0113;0.00173;1.22;350
4790;442;0.0485;0.0113;0.00173;1.22;350
4792;442;0.0485;0.0113;0.00172;1.22;350
4794;442;0.0485;0.0113;0.00171;1.22;350
4796;442;0.0485;0.0113;0.00172;1.22;350
4798;442;0.0485;0.0113;0.00172;1.22;350
4800;442;0.0485;0.0113;0.00171;1.22;350
4802;442;0.0485;0.0113;0.00171;1.22;350
4804;442;0.0485;0.0113;0.00171;1.22;350
4806;442;0.0485;0.0113;0.00171;1.22;350
4808;442;0.0485;0.0113;0.00171;1.22;350
4810;442;0.0485;0.0113;0.0017;1.22;350
4812;442;0.0485;0.0113;0.0017;1.22;350
4814;442;0.0485;0.0113;0.00168;1.22;350
4816;442;0.0485;0.0113;0.00168;1.22;350
4818;442;0.0485;0.0113;0.00168;1.22;350
4820;442;0.0485;0.0113;0.00168;1.22;350
4822;442;0.0485;0.0113;0.00169;1.22;350
4824;442;0.0485;0.0113;0.00171;1.22;350
4826;442;0.0485;0.0113;0.00171;1.22;350
4828;442;0.0485;0.0113;0.00169;1.22;350
4830;442;0.0485;0.0113;0.0017;1.22;350
4832;442;0.0485;0.0113;0.00169;1.22;350
4834;442;0.0485;0.0113;0.0017;1.22;350
4836;442;0.0485;0.0113;0.00173;1.22;350
4838;442;0.0485;0.0113;0.00171;1.22;350
4840;442;0.0485;0.0113;0.0017;1.22;350
4842;442;0.0485;0.0113;0.00172;1.22;350
4844;442;0.0485;0.0113;0.00172;1.22;350
4846;442;0.0485;0.0113;0.0017;1.22;350
4848;442;0.0485;0.0113;0.00169;1.22;350
4850;442;0.0485;0.0113;0.0017;1.22;350
4852;442;0.0485;0.0113;0.0017;1.22;350
4854;442;0.0485;0.0113;0.0017;1.22;350
4856;442;0.0485;0.0113;0.00167;1.22;350
4858;442;0.0485;0.0113;0.00169;1.22;350
4860;442;0.0485;0.0113;0.00168;1.22;350
4862;442;0.0485;0.0113;0.00168;1.22;350
4864;442;0.0485;0.0113;0.00167;1.22;350
4866;442;0.0485;0.0113;0.00167;1.22;350
4868;442;0.0485;0.0113;0.00169;1.22;350
4870;442;0.0485;0.0113;0.00169;1.22;350
4872;442;0.0485;0.0113;0.00168;1.22;350
4874;442;0.0485;0.0113;0.00168;1.22;350
4876;442;0.0485;0.0113;0.0017;1.22;350
4878;442;0.0485;0.0113;0.0017;1.22;350
4880;442;0.0485;0.0113;0.0017;1.22;350
4882;442;0.0485;0.0113;0.00169;1.22;350
4884;442;0.0485;0.0113;0.00171;1.22;350
4886;442;0.0485;0.0113;0.00169;1.22;350
4888;442;0.0485;0.0113;0.0017;1.22;350
4890;442;0.0485;0.0113;0.0017;1.22;350
4892;442;0.0485;0.0113;0.00172;1.22;350
4894;442;0.0485;0.0113;0.00172;1.22;350
4896;442;0.0485;0.0113;0.00172;1.22;350
4898;442;0.0485;0.0113;0.0017;1.22;350
4900;442;0.0485;0.0113;0.0017;1.22;350
4902;442;0.0485;0.0113;0.0017;1.22;350
4904;442;0.0485;0.0113;0.00171;1.22;350
4906;442;0.0485;0.0113;0.0017;1.22;350
4908;442;0.0485;0.0113;0.00171;1.22;350
4910;442;0.0485;0.0113;0.00169;1.22;350
4912;442;0.0485;0.0113;0.00171;1.22;350
4914;442;0.0485;0.0113;0.00169;1.22;350
4916;442;0.0485;0.0113;0.00169;1.22;350
4918;442;0.0485;0.0113;0.00169;1.22;350
4920;442;0.0485;0.0113;0.00168;1.22;350
4922;442;0.0485;0.0113;0.00167;1.22;350
4924;442;0.0485;0.0113;0.00169;1.22;350
4926;442;0.0485;0.0113;0.00169;1.22;350
4928;442;0.0485;0.0113;0.00169;1.22;350
4930;442;0.0485;0.0113;0.00167;1.22;350
4932;442;0.0485;0.0113;0.00166;1.22;350
4934;442;0.0485;0.0113;0.00168;1.22;350
4936;442;0.0485;0.0113;0.00169;1.22;350
4938;442;0.0485;0.0113;0.00169;1.22;350
4940;442;0.0485;0.0113;0.00168;1.22;350
4942;442;0.0485;0.0113;0.00169;1.22;350
4944;442;0.0485;0.0113;0.00169;1.22;350
4946;442;0.0485;0.0113;0.00166;1.22;350
4948;442;0.0485;0.0113;0.00169;1.22;350
4950;442;0.0485;0.0113;0.00169;1.22;350
4952;442;0.0485;0.0113;0.00169;1.22;350
4954;442;0.0485;0.0113;0.00167;1.22;350
4956;442;0.0485;0.0113;0.00167;1.22;350
4958;442;0.0485;0.0113;0.00168;1.22;350
4960;442;0.0485;0.0113;0.00168;1.22;350
4962;442;0.0485;0.0113;0.00167;1.22;350
4964;442;0.0485;0.0113;0.00166;1.22;350
4966;442;0.0485;0.0113;0.00168;1.22;350
4968;442;0.0485;0.0113;0.00169;1.22;350
4970;442;0.0485;0.0113;0.00168;1.22;350
4972;442;0.0485;0.0113;0.00168;1.22;350
4974;442;0.0485;0.0113;0.00168;1.22;350
4976;442;0.0485;0.0113;0.0017;1.22;350
4978;442;0.0485;0.0113;0.0017;1.22;350
4980;442;0.0485;0.0113;0.0017;1.22;350
4982;442;0.0485;0.0113;0.0017;1.22;350
4984;442;0.0485;0.0113;0.0017;1.22;350
4986;442;0.0485;0.0113;0.0017;1.22;350
4988;442;0.0485;0.0113;0.0017;1.22;350
4990;442;0.0485;0.0113;0.0017;1.22;350
4992;442;0.0485;0.0113;0.0017;1.22;350
4994;442;0.0485;0.0113;0.0017;1.22;350
4996;442;0.0485;0.0113;0.0017;1.21;350
4998;442;0.0485;0.0113;0.0017;1.22;350
5000;442;0.0485;0.0113;0.0017;1.22;350
5002;442;0.0485;0.0113;0.0017;1.22;350
5004;442;0.0485;0.0113;0.0017;1.22;350
5006;442;0.0485;0.0113;0.0017;1.22;350
5008;442;0.0485;0.0113;0.0017;1.22;350
5010;442;0.0485;0.0113;0.0017;1.22;350
5012;442;0.0485;0.0113;0.0017;1.22;350
5014;442;0.0485;0.0113;0.0017;1.22;350
5016;442;0.0485;0.0113;0.0017;1.22;350
5018;442;0.0485;0.0113;0.0017;1.22;350
5020;442;0.0485;0.0113;0.0017;1.22;350
5022;442;0.0485;0.0113;0.0017;1.22;350
5024;441;0.0485;0.0113;0.0017;1.22;350
5026;442;0.0485;0.0113;0.0017;1.22;350
5028;442;0.0485;0.0113;0.0017;1.22;350
5030;442;0.0485;0.0113;0.0017;1.22;350
5032;442;0.0485;0.0113;0.0017;1.22;350
5034;442;0.0485;0.0113;0.0017;1.22;350
5036;442;0.0485;0.0113;0.0017;1.22;350
5038;442;0.0485;0.0113;0.0017;1.22;350
5040;442;0.0485;0.0113;0.0017;1.22;350
5042;442;0.0485;0.0113;0.0017;1.22;350
5044;442;0.0485;0.0113;0.0017;1.22;350
5046;442;0.0485;0.0113;0.0017;1.22;350
5048;442;0.0485;0.0113;0.0017;1.22;350
5050;442;0.0485;0.0113;0.0017;1.22;350
5052;442;0.0485;0.0113;0.0017;1.22;350
5054;442;0.0485;0.0113;0.0017;1.22;350
5056;442;0.0485;0.0113;0.0017;1.22;350
5058;442;0.0485;0.0113;0.0017;1.22;350
5060;442;0.0485;0.0113;0.0017;1.22;350
5062;442;0.0485;0.0113;0.0017;1.22;350
5064;442;0.0485;0.0113;0.0017;1.21;350
5066;442;0.0485;0.0113;0.0017;1.22;350
5068;442;0.0485;0.0113;0.0017;1.22;350
5070;442;0.0485;0.0113;0.0017;1.22;350
5072;442;0.0485;0.0113;0.0017;1.22;350
5074;442;0.0485;0.0113;0.0017;1.22;350
5076;442;0.0485;0.0113;0.0017;1.22;350
5078;442;0.0485;0.0113;0.0017;1.22;350
5080;442;0.0485;0.0113;0.0017;1.22;350
5082;442;0.0485;0.0113;0.0017;1.22;350
5084;442;0.0485;0.0113;0.0017;1.21;350
5086;442;0.0485;0.0113;0.0017;1.22;350
5088;442;0.0485;0.0113;0.0017;1.22;350
5090;442;0.0485;0.0113;0.0017;1.22;350
5092;442;0.0485;0.0113;0.0017;1.22;350
5094;442;0.0485;0.0113;0.0017;1.22;350
5096;442;0.0485;0.0113;0.0017;1.22;350
5098;442;0.0485;0.0113;0.0017;1.22;350
5100;442;0.0485;0.0113;0.0017;1.22;350
5102;442;0.0485;0.0113;0.0017;1.22;350
5104;442;0.0485;0.0113;0.0017;1.21;350
5106;442;0.0485;0.0113;0.0017;1.22;350
5108;442;0.0485;0.0113;0.0017;1.21;350
5110;442;0.0485;0.0113;0.0017;1.22;350
5112;442;0.0485;0.0113;0.0017;1.22;350
5114;442;0.0485;0.0113;0.0017;1.22;350
5116;442;0.0485;0.0113;0.0017;1.22;350
5118;442;0.0485;0.0113;0.0017;1.22;350
5120;442;0.0485;0.0113;0.0017;1.22;350
5122;442;0.0485;0.0113;0.0017;1.22;350
5124;442;0.0485;0.0113;0.0017;1.22;350
5126;442;0.0485;0.0113;0.0017;1.21;350
5128;442;0.0485;0.0113;0.0017;1.21;350
5130;442;0.0485;0.0113;0.0017;1.21;350
5132;442;0.0485;0.0113;0.0017;1.21;350
5134;442;0.0485;0.0113;0.0017;1.21;350
5136;442;0.0485;0.0113;0.0017;1.21;350
5138;441;0.0485;0.0113;0.0017;1.22;350
5140;442;0.0485;0.0113;0.0017;1.22;350
5142;442;0.0485;0.0113;0.0017;1.22;350
5144;442;0.0485;0.0113;0.0017;1.22;350
5146;442;0.0485;0.0113;0.0017;1.21;350
5148;442;0.0485;0.0113;0.0017;1.21;350
5150;442;0.0485;0.0113;0.0017;1.21;350
5152;442;0.0485;0.0113;0.0017;1.21;350
5154;442;0.0485;0.0113;0.0017;1.22;350
5156;442;0.0485;0.0113;0.0017;1.21;350
5158;442;0.0485;0.0113;0.0017;1.22;350
5160;441;0.0485;0.0113;0.0017;1.22;350
5162;441;0.0485;0.0113;0.0017;1.22;350
5164;441;0.0485;0.0113;0.0017;1.22;350
5166;442;0.0485;0.0113;0.0017;1.21;350
5168;442;0.0485;0.0113;0.0017;1.22;350
5170;442;0.0485;0.0113;0.0017;1.22;350
5172;442;0.0485;0.0113;0.0017;1.22;350
5174;442;0.0485;0.0113;0.0017;1.22;350
5176;442;0.0485;0.0113;0.0017;1.21;350
5178;442;0.0485;0.0113;0.0017;1.22;350
5180;442;0.0485;0.0113;0.0017;1.22;350
5182;441;0.0485;0.0113;0.0017;1.22;350
5184;442;0.0485;0.0113;0.0017;1.22;350
5186;442;0.0485;0.0113;0.0017;1.22;350
5188;442;0.0485;0.0113;0.0017;1.22;350
5190;442;0.0485;0.0113;0.0017;1.22;350
5192;442;0.0485;0.0113;0.0017;1.22;350
5194;442;0.0485;0.0113;0.0017;1.22;350
5196;442;0.0485;0.0113;0.0017;1.21;350
5198;442;0.0485;0.0113;0.0017;1.22;350
5200;442;0.0485;0.0113;0.0017;1.21;350
5202;442;0.0485;0.0113;0.0017;1.21;350
5204;442;0.0485;0.0113;0.0017;1.21;350
5206;442;0.0485;0.0113;0.0017;1.21;350
5208;442;0.0485;0.0113;0.0017;1.22;350
5210;442;0.0485;0.0113;0.0017;1.21;350
5212;442;0.0485;0.0113;0.0017;1.22;350
5214;441;0.0485;0.0113;0.0017;1.22;350
5216;442;0.0485;0.0113;0.0017;1.22;350
5218;442;0.0485;0.0113;0.0017;1.22;350
5220;442;0.0485;0.0113;0.0017;1.22;350
5222;442;0.0485;0.0113;0.0017;1.22;350
5224;442;0.0485;0.0113;0.0017;1.22;350
5226;442;0.0485;0.0113;0.0017;1.22;350
5228;442;0.0485;0.0113;0.0017;1.21;350
5230;442;0.0485;0.0113;0.0017;1.21;350
5232;442;0.0485;0.0113;0.0017;1.22;350
5234;442;0.0485;0.0113;0.0017;1.22;350
5236;442;0.0485;0.0113;0.0017;1.22;350
5238;442;0.0485;0.0113;0.0017;1.22;350
5240;442;0.0485;0.0113;0.0017;1.22;350
5242;442;0.0485;0.0113;0.0017;1.22;350
5244;442;0.0485;0.0113;0.0017;1.22;350
5246;442;0.0485;0.0113;0.0017;1.22;350
5248;442;0.0485;0.0113;0.0017;1.22;350
5250;442;0.0485;0.0113;0.0017;1.21;350
5252;442;0.0485;0.0113;0.0017;1.21;350
5254;442;0.0485;0.0113;0.0017;1.21;350
5256;442;0.0485;0.0113;0.0017;1.22;350
5258;442;0.0485;0.0113;0.0017;1.21;350
5260;442;0.0485;0.0113;0.0017;1.21;350
5262;442;0.0485;0.0113;0.0017;1.22;350
5264;442;0.0485;0.0113;0.0017;1.22;350
5266;442;0.0485;0.0113;0.0017;1.22;350
5268;442;0.0485;0.0113;0.0017;1.22;350
5270;442;0.0485;0.0113;0.0017;1.22;350
5272;442;0.0485;0.0113;0.0017;1.22;350
5274;442;0.0485;0.0113;0.0017;1.22;350
5276;442;0.0485;0.0113;0.0017;1.22;350
5278;442;0.0485;0.0113;0.0017;1.21;350
5280;442;0.0485;0.0113;0.0017;1.22;350
5282;442;0.0485;0.0113;0.0017;1.21;350
5284;442;0.0485;0.0113;0.0017;1.22;350
5286;442;0.0485;0.0113;0.0017;1.22;350
5288;442;0.0485;0.0113;0.0017;1.22;350
5290;442;0.0485;0.0113;0.0017;1.22;350
5292;442;0.0485;0.0113;0.0017;1.21;350
5294;442;0.0485;0.0113;0.0017;1.21;350
5296;442;0.0485;0.0113;0.0017;1.21;350
5298;442;0.0485;0.0113;0.0017;1.21;350
5300;442;0.0485;0.0113;0.0017;1.22;350
5302;442;0.0485;0.0113;0.0017;1.22;350
5304;442;0.0485;0.0113;0.0017;1.22;350
5306;442;0.0485;0.0113;0.0017;1.22;350
5308;442;0.0485;0.0113;0.0017;1.21;350
5310;442;0.0485;0.0113;0.0017;1.22;350
5312;442;0.0485;0.0113;0.0017;1.21;350
5314;442;0.0485;0.0113;0.0017;1.22;350
5316;442;0.0485;0.0113;0.0017;1.21;350
5318;442;0.0485;0.0113;0.0017;1.22;350
5320;442;0.0485;0.0113;0.0017;1.21;350
5322;442;0.0485;0.0113;0.0017;1.22;350
5324;442;0.0485;0.0113;0.0017;1.22;350
5326;442;0.0485;0.0113;0.0017;1.21;350
5328;442;0.0485;0.0113;0.0017;1.22;350
5330;442;0.0485;0.0113;0.0017;1.22;350
5332;442;0.0485;0.0113;0.0017;1.22;350
5334;442;0.0485;0.0113;0.0017;1.21;350
5336;442;0.0485;0.0113;0.0017;1.21;350
5338;442;0.0485;0.0113;0.0017;1.21;350
5340;442;0.0485;0.0113;0.0017;1.21;350
5342;442;0.0485;0.0113;0.0017;1.21;350
5344;442;0.0485;0.0113;0.0017;1.21;350
5346;442;0.0485;0.0113;0.0017;1.21;350
5348;442;0.0485;0.0113;0.0017;1.21;350
5350;442;0.0485;0.0113;0.0017;1.22;350
5352;442;0.0485;0.0113;0.0017;1.22;350
5354;442;0.0485;0.0113;0.0017;1.21;350
5356;442;0.0485;0.0113;0.0017;1.21;350
5358;442;0.0485;0.0113;0.0017;1.21;350
5360;442;0.0485;0.0113;0.0017;1.21;350
5362;442;0.0485;0.0113;0.0017;1.21;350
5364;442;0.0485;0.0113;0.0017;1.21;350
5366;442;0.0485;0.0113;0.0017;1.21;350
5368;442;0.0485;0.0113;0.0017;1.21;350
5370;442;0.0485;0.0113;0.0017;1.21;350
5372;442;0.0485;0.0113;0.0017;1.22;350
5374;442;0.0485;0.0113;0.0017;1.21;350
5376;442;0.0485;0.0113;0.0017;1.21;350
5378;442;0.0485;0.0113;0.0017;1.22;350
5380;442;0.0485;0.0113;0.0017;1.21;350
5382;442;0.0485;0.0113;0.0017;1.22;350
5384;442;0.0485;0.0113;0.0017;1.22;350
5386;442;0.0485;0.0113;0.0017;1.22;350
5388;442;0.0485;0.0113;0.0017;1.22;350
5390;442;0.0485;0.0113;0.0017;1.22;350
5392;442;0.0485;0.0113;0.0017;1.22;350
5394;442;0.0485;0.0113;0.0017;1.22;350
5396;442;0.0485;0.0113;0.0017;1.22;350
5398;442;0.0485;0.0113;0.0017;1.21;350
5400;442;0.0485;0.0113;0.0017;1.21;350
5402;442;0.0485;0.0113;0.0017;1.22;350
5404;442;0.0485;0.0113;0.0017;1.21;350
5406;442;0.0485;0.0113;0.0017;1.22;350
5408;442;0.0485;0.0113;0.0017;1.21;350
5410;442;0.0485;0.0113;0.0017;1.22;350
5412;442;0.0485;0.0113;0.0017;1.22;350
5414;442;0.0485;0.0113;0.0017;1.22;350
5416;442;0.0485;0.0113;0.0017;1.22;350
5418;442;0.0485;0.0113;0.0017;1.21;350
5420;442;0.0485;0.0113;0.0017;1.22;350
5422;442;0.0485;0.0113;0.0017;1.21;350
5424;442;0.0485;0.0113;0.0017;1.22;350
5426;442;0.0485;0.0113;0.0017;1.21;350
5428;442;0.0485;0.0113;0.0017;1.21;350
5430;442;0.0485;0.0113;0.0017;1.22;350
5432;442;0.0485;0.0113;0.0017;1.22;350
5434;442;0.0485;0.0113;0.0017;1.21;350
5436;442;0.0485;0.0113;0.0017;1.22;350
5438;442;0.0485;0.0113;0.0017;1.21;350
5440;442;0.0485;0.0113;0.0017;1.22;350
5442;442;0.0485;0.0113;0.0017;1.21;350
5444;442;0.0485;0.0113;0.0017;1.22;350
5446;442;0.0485;0.0113;0.0017;1.22;350
5448;442;0.0485;0.0113;0.0017;1.22;350
5450;442;0.0485;0.0113;0.0017;1.22;350
5452;442;0.0485;0.0113;0.0017;1.22;350
5454;442;0.0485;0.0113;0.0017;1.22;350
5456;442;0.0485;0.0113;0.0017;1.22;350
5458;442;0.0485;0.0113;0.0017;1.22;350
5460;442;0.0485;0.0113;0.0017;1.22;350
5462;442;0.0485;0.0113;0.0017;1.22;350
5464;442;0.0485;0.0113;0.0017;1.22;350
5466;442;0.0485;0.0113;0.0017;1.22;350
5468;442;0.0485;0.0113;0.0017;1.22;350
5470;442;0.0485;0.0113;0.0017;1.21;350
5472;442;0.0485;0.0113;0.0017;1.21;350
5474;442;0.0485;0.0113;0.0017;1.22;350
5476;442;0.0485;0.0113;0.0017;1.22;350
5478;442;0.0485;0.0113;0.0017;1.22;350
5480;442;0.0485;0.0113;0.0017;1.22;350
5482;442;0.0485;0.0113;0.0017;1.22;350
5484;442;0.0485;0.0113;0.0017;1.22;350
5486;442;0.0485;0.0113;0.0017;1.22;350
5488;442;0.0485;0.0113;0.0017;1.22;350
5490;442;0.0485;0.0113;0.0017;1.22;350
5492;442;0.0485;0.0113;0.0017;1.22;350
5494;442;0.0485;0.0113;0.0017;1.22;350
5496;442;0.0485;0.0113;0.0017;1.22;350
5498;442;0.0485;0.0113;0.0017;1.22;350
5500;442;0.0485;0.0113;0.0017;1.22;350
5502;442;0.0485;0.0113;0.0017;1.22;350
5504;442;0.0485;0.0113;0.0017;1.22;350
5506;442;0.0485;0.0113;0.0017;1.22;350
5508;442;0.0485;0.0113;0.0017;1.22;350
5510;442;0.0485;0.0113;0.0017;1.22;350
5512;442;0.0485;0.0113;0.0017;1.22;350
5514;442;0.0485;0.0113;0.0017;1.22;350
5516;442;0.0485;0.0113;0.0017;1.22;350
5518;442;0.0485;0.0113;0.0017;1.22;350
5520;442;0.0485;0.0113;0.0017;1.22;350
5522;442;0.0485;0.0113;0.0017;1.22;350
5524;442;0.0485;0.0113;0.0017;1.22;350
5526;442;0.0485;0.0113;0.0017;1.22;350
5528;442;0.0485;0.0113;0.0017;1.22;350
5530;442;0.0485;0.0113;0.0017;1.22;350
5532;442;0.0485;0.0113;0.0017;1.22;350
5534;442;0.0485;0.0113;0.0017;1.22;350
5536;442;0.0485;0.0113;0.0017;1.22;350
5538;442;0.0485;0.0113;0.0017;1.22;350
5540;442;0.0485;0.0113;0.0017;1.22;350
5542;442;0.0485;0.0113;0.0017;1.22;350
5544;442;0.0485;0.0113;0.0017;1.22;350
5546;442;0.0485;0.0113;0.0017;1.22;350
5548;442;0.0485;0.0113;0.0017;1.22;350
5550;442;0.0485;0.0113;0.0017;1.22;350
5552;442;0.0485;0.0113;0.0017;1.22;350
5554;442;0.0485;0.0113;0.0017;1.21;350
5556;442;0.0485;0.0113;0.0017;1.22;350
5558;442;0.0485;0.0113;0.0017;1.22;350
5560;442;0.0485;0.0113;0.0017;1.22;350
5562;442;0.0485;0.0113;0.0017;1.22;350
5564;442;0.0485;0.0113;0.0017;1.22;350
5566;442;0.0485;0.0113;0.0017;1.22;350
5568;442;0.0485;0.0113;0.0017;1.22;350
5570;442;0.0485;0.0113;0.0017;1.22;350
5572;442;0.0485;0.0113;0.0017;1.22;350
5574;442;0.0485;0.0113;0.0017;1.22;350
5576;443;0.0485;0.0113;0.0017;1.22;350
5578;442;0.0485;0.0113;0.0017;1.22;350
5580;442;0.0485;0.0113;0.0017;1.22;350
5582;443;0.0485;0.0113;0.0017;1.22;350
5584;442;0.0485;0.0113;0.0017;1.22;350
5586;443;0.0485;0.0113;0.0017;1.22;350
5588;442;0.0485;0.0113;0.0017;1.22;350
5590;442;0.0485;0.0113;0.0017;1.22;350
5592;442;0.0485;0.0113;0.0017;1.22;350
5594;443;0.0485;0.0113;0.0017;1.22;350
5596;442;0.0485;0.0113;0.0017;1.22;350
5598;443;0.0485;0.0113;0.0017;1.22;350
5600;443;0.0485;0.0113;0.0017;1.22;350
5602;443;0.0485;0.0113;0.0017;1.22;350
5604;443;0.0485;0.0113;0.0017;1.22;350
5606;442;0.0485;0.0113;0.0017;1.22;350
5608;443;0.0485;0.0113;0.0017;1.22;350
5610;442;0.0485;0.0113;0.0017;1.22;350
5612;442;0.0485;0.0113;0.0017;1.22;350
5614;443;0.0485;0.0113;0.0017;1.22;350
5616;442;0.0485;0.0113;0.0017;1.22;350
5618;442;0.0485;0.0113;0.0017;1.22;350
5620;442;0.0485;0.0113;0.0017;1.22;350
5622;442;0.0485;0.0113;0.0017;1.22;350
5624;442;0.0485;0.0113;0.0017;1.22;350
5626;443;0.0485;0.0113;0.0017;1.22;350
5628;442;0.0485;0.0113;0.0017;1.22;350
5630;442;0.0485;0.0113;0.0017;1.22;350
5632;442;0.0485;0.0113;0.0017;1.22;350
5634;442;0.0485;0.0113;0.0017;1.22;350
5636;442;0.0485;0.0113;0.0017;1.22;350
5638;442;0.0485;0.0113;0.0017;1.22;350
5640;443;0.0485;0.0113;0.0017;1.22;350
5642;442;0.0485;0.0113;0.0017;1.22;350
5644;442;0.0485;0.0113;0.0017;1.22;350
5646;442;0.0485;0.0113;0.0017;1.22;350
5648;442;0.0485;0.0113;0.0017;1.22;350
5650;442;0.0485;0.0113;0.0017;1.22;350
5652;442;0.0485;0.0113;0.0017;1.22;350
5654;442;0.0485;0.0113;0.0017;1.22;350
5656;442;0.0485;0.0113;0.0017;1.22;350
5658;442;0.0485;0.0113;0.0017;1.22;350
5660;442;0.0485;0.0113;0.0017;1.22;350
5662;442;0.0485;0.0113;0.0017;1.22;350
5664;442;0.0485;0.0113;0.0017;1.22;350
5666;442;0.0485;0.0113;0.0017;1.22;350
5668;442;0.0485;0.0113;0.0017;1.22;350
5670;442;0.0485;0.0113;0.0017;1.22;350
5672;442;0.0485;0.0113;0.0017;1.22;350
5674;442;0.0485;0.0113;0.0017;1.22;350
5676;442;0.0485;0.0113;0.0017;1.22;350
5678;442;0.0485;0.0113;0.0017;1.22;350
5680;442;0.0485;0.0113;0.0017;1.22;350
5682;442;0.0485;0.0113;0.0017;1.22;350
5684;442;0.0485;0.0113;0.0017;1.22;350
5686;442;0.0485;0.0113;0.0017;1.22;350
5688;442;0.0485;0.0113;0.0017;1.22;350
5690;442;0.0485;0.0113;0.0017;1.22;350
5692;442;0.0485;0.0113;0.0017;1.22;350
5694;442;0.0485;0.0113;0.0017;1.22;350
5696;442;0.0485;0.0113;0.0017;1.22;350
5698;442;0.0485;0.0113;0.0017;1.22;350
5700;442;0.0485;0.0113;0.0017;1.22;350
5702;442;0.0485;0.0113;0.0017;1.22;350
5704;442;0.0485;0.0113;0.0017;1.22;350
5706;442;0.0485;0.0113;0.0017;1.22;350
5708;442;0.0485;0.0113;0.0017;1.22;350
5710;442;0.0485;0.0113;0.0017;1.22;350
5712;442;0.0485;0.0113;0.0017;1.22;350
5714;442;0.0485;0.0113;0.0017;1.22;350
5716;442;0.0485;0.0113;0.0017;1.22;350
5718;442;0.0485;0.0113;0.0017;1.22;350
5720;442;0.0485;0.0113;0.0017;1.22;350
5722;442;0.0485;0.0113;0.0017;1.22;350
5724;442;0.0485;0.0113;0.0017;1.21;350
5726;442;0.0485;0.0113;0.0017;1.22;350
5728;442;0.0485;0.0113;0.0017;1.22;350
5730;442;0.0485;0.0113;0.0017;1.22;350
5732;442;0.0485;0.0113;0.0017;1.22;350
5734;442;0.0485;0.0113;0.0017;1.22;350
5736;442;0.0485;0.0113;0.0017;1.22;350
5738;442;0.0485;0.0113;0.0017;1.21;350
5740;442;0.0485;0.0113;0.0017;1.22;350
5742;442;0.0485;0.0113;0.0017;1.22;350
5744;442;0.0485;0.0113;0.0017;1.22;350
5746;442;0.0485;0.0113;0.0017;1.22;350
5748;442;0.0485;0.0113;0.0017;1.22;350
5750;442;0.0485;0.0113;0.0017;1.22;350
5752;442;0.0485;0.0113;0.0017;1.22;350
5754;442;0.0485;0.0113;0.0017;1.22;350
5756;442;0.0485;0.0113;0.0017;1.22;350
5758;442;0.0485;0.0113;0.0017;1.22;350
5760;442;0.0485;0.0113;0.0017;1.22;350
5762;442;0.0485;0.0113;0.0017;1.22;350
5764;442;0.0485;0.0113;0.0017;1.22;350
5766;442;0.0485;0.0113;0.0017;1.21;350
5768;442;0.0485;0.0113;0.0017;1.22;350
5770;442;0.0485;0.0113;0.0017;1.22;350
5772;442;0.0485;0.0113;0.0017;1.22;350
5774;442;0.0485;0.0113;0.0017;1.22;350
5776;442;0.0485;0.0113;0.0017;1.22;350
5778;442;0.0485;0.0113;0.0017;1.22;350
5780;442;0.0485;0.0113;0.0017;1.21;350
5782;442;0.0485;0.0113;0.0017;1.22;350
5784;442;0.0485;0.0113;0.0017;1.22;350
5786;442;0.0485;0.0113;0.0017;1.21;350
5788;442;0.0485;0.0113;0.0017;1.21;350
5790;442;0.0485;0.0113;0.0017;1.21;350
5792;442;0.0485;0.0113;0.0017;1.22;350
5794;442;0.0485;0.0113;0.0017;1.21;350
5796;442;0.0485;0.0113;0.0017;1.22;350
5798;442;0.0485;0.0113;0.0017;1.22;350
5800;442;0.0485;0.0113;0.0017;1.21;350
5802;442;0.0485;0.0113;0.0017;1.22;350
5804;442;0.0485;0.0113;0.0017;1.22;350
5806;442;0.0485;0.0113;0.0017;1.22;350
5808;442;0.0485;0.0113;0.0017;1.22;350
5810;442;0.0485;0.0113;0.0017;1.22;350
5812;442;0.0485;0.0113;0.0017;1.22;350
5814;442;0.0485;0.0113;0.0017;1.22;350
5816;442;0.0485;0.0113;0.0017;1.22;350
5818;442;0.0485;0.0113;0.0017;1.21;350
5820;442;0.0485;0.0113;0.0017;1.22;350
5822;442;0.0485;0.0113;0.0017;1.22;350
5824;442;0.0485;0.0113;0.0017;1.22;350
5826;442;0.0485;0.0113;0.0017;1.22;350
5828;442;0.0485;0.0113;0.0017;1.22;350
5830;442;0.0485;0.0113;0.0017;1.22;350
5832;442;0.0485;0.0113;0.0017;1.22;350
5834;442;0.0485;0.0113;0.0017;1.21;350
5836;442;0.0485;0.0113;0.0017;1.22;350
5838;442;0.0485;0.0113;0.0017;1.22;350
5840;442;0.0485;0.0113;0.0017;1.21;350
5842;442;0.0485;0.0113;0.0017;1.22;350
5844;442;0.0485;0.0113;0.0017;1.21;350
5846;442;0.0485;0.0113;0.0017;1.22;350
5848;442;0.0485;0.0113;0.0017;1.21;350
5850;442;0.0485;0.0113;0.0017;1.22;350
5852;442;0.0485;0.0113;0.0017;1.21;350
5854;442;0.0485;0.0113;0.0017;1.22;350
5856;442;0.0485;0.0113;0.0017;1.21;350
5858;442;0.0485;0.0113;0.0017;1.22;350
5860;442;0.0485;0.0113;0.0017;1.22;350
5862;442;0.0485;0.0113;0.0017;1.22;350
5864;442;0.0485;0.0113;0.0017;1.22;350
5866;442;0.0485;0.0113;0.0017;1.22;350
5868;442;0.0485;0.0113;0.0017;1.21;350
5870;442;0.0485;0.0113;0.0017;1.21;350
5872;442;0.0485;0.0113;0.0017;1.21;350
5874;442;0.0485;0.0113;0.0017;1.21;350
5876;442;0.0485;0.0113;0.0017;1.22;350
5878;442;0.0485;0.0113;0.0017;1.22;350
5880;442;0.0485;0.0113;0.0017;1.22;350
5882;442;0.0485;0.0113;0.0017;1.21;350
5884;442;0.0485;0.0113;0.0017;1.22;350
5886;442;0.0485;0.0113;0.0017;1.21;350
5888;442;0.0485;0.0113;0.0017;1.21;350
5890;442;0.0485;0.0113;0.0017;1.22;350
5892;442;0.0485;0.0113;0.0017;1.22;350
5894;442;0.0485;0.0113;0.0017;1.22;350
5896;442;0.0485;0.0113;0.0017;1.21;350
5898;442;0.0485;0.0113;0.0017;1.22;350
5900;442;0.0485;0.0113;0.0017;1.22;350
5902;442;0.0485;0.0113;0.0017;1.22;350
5904;442;0.0485;0.0113;0.0017;1.22;350
5906;442;0.0485;0.0113;0.0017;1.22;350
5908;442;0.0485;0.0113;0.0017;1.22;350
5910;442;0.0485;0.0113;0.0017;1.21;350
5912;442;0.0485;0.0113;0.0017;1.22;350
5914;442;0.0485;0.0113;0.0017;1.22;350
5916;442;0.0485;0.0113;0.0017;1.22;350
5918;442;0.0485;0.0113;0.0017;1.22;350
5920;442;0.0485;0.0113;0.0017;1.22;350
5922;442;0.0485;0.0113;0.0017;1.22;350
5924;442;0.0485;0.0113;0.0017;1.22;350
5926;442;0.0485;0.0113;0.0017;1.22;350
5928;442;0.0485;0.0113;0.0017;1.22;350
5930;442;0.0485;0.0113;0.0017;1.22;350
5932;442;0.0485;0.0113;0.0017;1.22;350
5934;442;0.0485;0.0113;0.0017;1.22;350
5936;442;0.0485;0.0113;0.0017;1.22;350
5938;442;0.0485;0.0113;0.0017;1.22;350
5940;442;0.0485;0.0113;0.0017;1.22;350
5942;442;0.0485;0.0113;0.0017;1.22;350
5944;442;0.0485;0.0113;0.0017;1.22;350
5946;442;0.0485;0.0113;0.0017;1.22;350
5948;442;0.0485;0.0113;0.0017;1.22;350
5950;442;0.0485;0.0113;0.0017;1.22;350
5952;442;0.0485;0.0113;0.0017;1.21;350
5954;442;0.0485;0.0113;0.0017;1.22;350
5956;442;0.0485;0.0113;0.0017;1.22;350
5958;442;0.0485;0.0113;0.0017;1.22;350
5960;442;0.0485;0.0113;0.0017;1.21;350
5962;442;0.0485;0.0113;0.0017;1.22;350
5964;442;0.0485;0.0113;0.0017;1.22;350
5966;442;0.0485;0.0113;0.0017;1.21;350
5968;442;0.0485;0.0113;0.0017;1.22;350
5970;442;0.0485;0.0113;0.0017;1.22;350
5972;442;0.0485;0.0113;0.0017;1.22;350
5974;442;0.0485;0.0113;0.0017;1.21;350
5976;442;0.0485;0.0113;0.0017;1.22;350
5978;442;0.0485;0.0113;0.0017;1.21;350
5980;442;0.0485;0.0113;0.0017;1.22;350
5982;442;0.0485;0.0113;0.0017;1.22;350
5984;442;0.0485;0.0113;0.0017;1.22;350
5986;442;0.0485;0.0113;0.0017;1.22;350
5988;442;0.0485;0.0113;0.0017;1.21;350
5990;442;0.0485;0.0113;0.0017;1.22;350
5992;442;0.0485;0.0113;0.0017;1.21;350
5994;442;0.0485;0.0113;0.0017;1.22;350
5996;442;0.0485;0.0113;0.0017;1.21;350
5998;442;0.0485;0.0113;0.0017;1.21;350
6000;442;0.0485;0.0113;0.0017;1.21;350
6002;442;0.0485;0.0113;0.0017;1.21;350
6004;442;0.0485;0.0113;0.0017;1.21;350
6006;442;0.0485;0.0113;0.0017;1.21;350
6008;442;0.0485;0.0113;0.0017;1.21;350
6010;442;0.0485;0.0113;0.0017;1.22;350
6012;442;0.0485;0.0113;0.0017;1.21;350
6014;442;0.0485;0.0113;0.0017;1.22;350
6016;442;0.0485;0.0113;0.0017;1.21;350
6018;442;0.0485;0.0113;0.0017;1.22;350
6020;442;0.0485;0.0113;0.0017;1.22;350
6022;442;0.0485;0.0113;0.0017;1.22;350
6024;442;0.0485;0.0113;0.0017;1.22;350
6026;442;0.0485;0.0113;0.0017;1.21;350
6028;442;0.0485;0.0113;0.0017;1.22;350
