Time [s];T_cat [gradC];n_h2 [mol/s];n_ch4 [mol/s];n_h2_res [mol/s];m_DE [kg/h];Pel [W]
0;448;0.0485;0.0114;0.00252;1.22;490
2;448;0.0484;0.0113;0.00252;0;490
4;447;0.0483;0.0113;0.00251;0;490
6;447;0.0482;0.0112;0.00251;0;350
8;447;0.0481;0.0112;0.0025;0;350
10;446;0.048;0.0111;0.0025;0;350
12;446;0.0479;0.0111;0.00249;0;350
14;446;0.0478;0.0110;0.00249;0;350
16;445;0.0477;0.0110;0.00248;0;350
18;445;0.0476;0.0109;0.00248;0;350
20;445;0.0475;0.0109;0.00247;0;350
22;444;0.0474;0.0108;0.00247;0;350
24;445;0.0473;0.0108;0.00246;0;350
26;445;0.0472;0.0108;0.00246;0;350
28;444;0.0471;0.0101;0.00245;0;350
30;444;0.047;0.0101;0.00245;0;350
32;445;0.0469;0.0101;0.00244;0;350
34;444;0.0468;0.0101;0.00244;0;448
36;444;0.0467;0.0100;0.00243;0;490
38;444;0.0466;0.0100;0.00243;0;490
40;444;0.0465;0.0100;0.00242;0;490
42;444;0.0464;0.0100;0.00242;0;490
44;445;0.0463;0.0100;0.00241;0;378
46;444;0.0462;0.0099;0.00241;0;350
48;445;0.0461;0.0099;0.0024;0;350
50;445;0.046;0.0099;0.0024;0;350
52;445;0.0459;0.0099;0.00239;0;350
54;445;0.0458;0.0099;0.00239;0;350
56;445;0.0457;0.0098;0.00238;0;350
58;445;0.0456;0.0098;0.00238;0;350
60;445;0.0455;0.0098;0.00237;0;350
62;446;0.0454;0.0098;0.00237;0;350
64;445;0.0452;0.0094;0.00265;0;350
66;446;0.0451;0.0094;0.00264;0;350
68;447;0.0451;0.0093;0.00262;0;350
70;446;0.0449;0.0093;0.00263;0;350
72;447;0.0449;0.0093;0.00261;0;350
74;447;0.0448;0.0093;0.00262;0;406
76;447;0.0446;0.0093;0.0026;0;490
78;447;0.0445;0.0092;0.00262;0;490
80;448;0.0444;0.0092;0.00259;0;490
82;448;0.0443;0.0092;0.0026;0;490
84;448;0.0442;0.0092;0.00258;0;420
86;449;0.0441;0.0091;0.00258;0;350
88;448;0.044;0.0091;0.00257;0;350
90;449;0.0439;0.0091;0.00256;0;350
92;449;0.0438;0.0091;0.00255;0;350
94;449;0.0437;0.0091;0.00254;0;350
96;450;0.0436;0.0091;0.00254;0;350
98;450;0.0435;0.0091;0.00252;0;350
100;451;0.0434;0.0090;0.00252;0;350
102;451;0.0433;0.0090;0.0025;0;350
104;451;0.0432;0.0090;0.00251;0;350
106;452;0.0431;0.0090;0.00248;0;350
108;452;0.043;0.0090;0.00248;0;350
110;452;0.0429;0.0090;0.00246;0;350
112;453;0.0428;0.0090;0.00244;0;350
114;452;0.0427;0.0089;0.00245;0;350
116;453;0.0426;0.0089;0.00243;0;476
118;454;0.0425;0.0089;0.00243;0;490
120;453;0.0424;0.0089;0.00241;0;490
122;454;0.0423;0.0089;0.00241;0;490
124;454;0.0422;0.0088;0.0024;0;490
126;454;0.0421;0.0088;0.00237;0;378
128;454;0.042;0.0088;0.00239;0;350
130;455;0.0419;0.0088;0.00237;0;350
132;454;0.0418;0.0088;0.00237;0;350
134;455;0.0417;0.0087;0.00237;0;350
136;455;0.0416;0.0088;0.00233;0;350
138;455;0.0415;0.0087;0.00235;0;350
140;455;0.0414;0.0087;0.00233;0;350
142;456;0.0413;0.0087;0.00232;0;350
144;455;0.0412;0.0086;0.00232;0;350
146;456;0.0411;0.0086;0.00232;0;350
148;456;0.041;0.0086;0.00231;0;350
150;456;0.0409;0.0086;0.0023;0;350
152;456;0.0408;0.0086;0.00228;0;350
154;456;0.0407;0.0085;0.00229;0;406
156;456;0.0405;0.0085;0.00228;0;490
158;456;0.0404;0.0085;0.00227;0;490
160;457;0.0403;0.0085;0.00224;0;490
162;456;0.0402;0.0085;0.00226;0;490
164;456;0.0401;0.0085;0.00226;0;420
166;457;0.04;0.0084;0.00224;0;350
168;456;0.0399;0.0084;0.00223;0;350
170;457;0.0398;0.0084;0.00222;0;350
172;457;0.0397;0.0084;0.00223;0;350
174;456;0.0396;0.0084;0.00222;0;350
176;457;0.0395;0.0084;0.00219;0;350
178;457;0.0394;0.0083;0.0022;0;350
180;456;0.0393;0.0083;0.0022;0;350
182;457;0.0392;0.0083;0.00218;0;350
184;457;0.0391;0.0083;0.00216;0;350
186;456;0.039;0.0082;0.00218;0;350
188;457;0.0389;0.0082;0.00216;0;350
190;457;0.0388;0.0082;0.00213;0;350
192;456;0.0387;0.0082;0.00214;0;434
194;457;0.0386;0.0082;0.00214;0;490
196;457;0.0385;0.0082;0.00213;0;490
198;456;0.0384;0.0081;0.00212;0;490
200;457;0.0383;0.0081;0.00211;0;490
202;457;0.0382;0.0081;0.00212;0;392
204;457;0.0381;0.0081;0.00211;0;350
206;458;0.038;0.0080;0.0021;0;350
208;458;0.0379;0.0080;0.00209;0;350
210;458;0.0378;0.0080;0.00206;0;350
212;459;0.0377;0.0080;0.00207;0;350
214;459;0.0376;0.0080;0.00208;0;350
216;459;0.0375;0.0079;0.00207;0;350
218;460;0.0374;0.0079;0.00206;0;350
220;460;0.0373;0.0079;0.00205;0;350
222;460;0.0372;0.0079;0.00203;0;406
224;460;0.0371;0.0079;0.00203;0;490
226;461;0.037;0.0078;0.00204;0;490
228;461;0.0369;0.0078;0.00204;0;490
230;461;0.0368;0.0078;0.00203;0;490
232;461;0.0367;0.0078;0.00203;0;420
234;461;0.0366;0.0077;0.00202;0;350
236;462;0.0365;0.0077;0.00201;0;350
238;462;0.0363;0.0077;0.00199;0;350
240;462;0.0362;0.0077;0.00198;0;350
242;462;0.0361;0.0077;0.00197;0;350
244;463;0.036;0.0077;0.00196;0;350
246;463;0.036;0.0077;0.00195;0;350
248;463;0.0358;0.0076;0.00195;0;350
250;463;0.0357;0.0076;0.00194;0;350
252;464;0.0356;0.0076;0.00194;0;350
254;464;0.0355;0.0076;0.00193;0;350
256;464;0.0354;0.0075;0.00193;0;350
258;464;0.0353;0.0075;0.00192;0;350
260;465;0.0352;0.0075;0.00191;0;378
262;465;0.0351;0.0075;0.00191;0;490
264;465;0.035;0.0075;0.00189;0;490
266;465;0.0349;0.0074;0.00188;0;490
268;465;0.0348;0.0074;0.00187;0;490
270;466;0.0347;0.0074;0.00186;0;448
272;466;0.0346;0.0074;0.00187;0;350
274;466;0.0345;0.0073;0.00187;0;350
276;466;0.0344;0.0073;0.00187;0;350
278;466;0.0343;0.0073;0.00185;0;350
280;466;0.0342;0.0073;0.00185;0;350
282;466;0.0341;0.0073;0.00183;0;350
284;466;0.034;0.0073;0.00182;0;350
286;467;0.0339;0.0072;0.00182;0;350
288;467;0.0338;0.0072;0.0018;0;350
290;467;0.0337;0.0072;0.0018;0;350
292;467;0.0336;0.0072;0.0018;0;350
294;467;0.0335;0.0071;0.0018;0;350
296;467;0.0334;0.0071;0.0018;0;378
298;467;0.0333;0.0071;0.00178;0;490
300;468;0.0332;0.0071;0.00177;0;490
302;468;0.0331;0.0071;0.00176;0;490
304;468;0.033;0.0071;0.00175;0;490
306;468;0.0329;0.0070;0.00175;0;462
308;468;0.0328;0.0070;0.00175;0;350
310;469;0.0327;0.0070;0.00175;0;350
312;469;0.0326;0.0069;0.00174;0;350
314;469;0.0325;0.0069;0.00173;0;350
316;469;0.0324;0.0069;0.00172;0;350
318;469;0.0323;0.0069;0.0017;0;350
320;470;0.0322;0.0069;0.0017;0;350
322;470;0.0321;0.0069;0.00169;0;350
324;470;0.0319;0.0068;0.00169;0;350
326;470;0.0318;0.0068;0.00169;0;350
328;470;0.0317;0.0068;0.00168;0;350
330;470;0.0316;0.0068;0.00167;0;364
332;470;0.0315;0.0068;0.00166;0;490
334;470;0.0314;0.0067;0.00164;0;490
336;470;0.0313;0.0067;0.00163;0;490
338;470;0.0312;0.0067;0.00163;0;490
340;470;0.0311;0.0067;0.00164;0;476
342;470;0.031;0.0066;0.00163;0;350
344;470;0.0309;0.0066;0.00162;0;350
346;470;0.0308;0.0066;0.00161;0;350
348;470;0.0307;0.0066;0.0016;0;350
350;470;0.0306;0.0066;0.0016;0;350
352;470;0.0305;0.0065;0.0016;0;350
354;470;0.0304;0.0065;0.0016;0;350
356;470;0.0303;0.0065;0.00159;0;350
358;470;0.0302;0.0065;0.00158;0;350
360;470;0.0301;0.0064;0.00156;0;350
362;471;0.03;0.0064;0.00157;0;350
364;471;0.0299;0.0064;0.00156;0;420
366;471;0.0298;0.0064;0.00156;0;490
368;471;0.0297;0.0064;0.00154;0;490
370;471;0.0296;0.0063;0.00153;0;490
372;471;0.0295;0.0063;0.00153;0;490
374;471;0.0294;0.0063;0.00153;0;420
376;471;0.0293;0.0063;0.00152;0;350
378;471;0.0292;0.0062;0.00151;0;350
380;471;0.0291;0.0062;0.0015;0;350
382;471;0.029;0.0062;0.00149;0;350
384;471;0.0289;0.0062;0.00149;0;350
386;471;0.0288;0.0062;0.00149;0;350
388;471;0.0287;0.0061;0.00149;0;350
390;471;0.0286;0.0061;0.00148;0;350
392;471;0.0285;0.0061;0.00147;0;350
394;471;0.0284;0.0061;0.00145;0;350
396;471;0.0283;0.0061;0.00145;0;350
398;471;0.0282;0.0060;0.00145;0;350
400;471;0.0281;0.0060;0.00144;0;490
402;471;0.028;0.0060;0.00143;0;490
404;471;0.0279;0.0060;0.00142;0;490
406;471;0.0278;0.0060;0.00141;0;490
408;471;0.0277;0.0059;0.00141;0;490
410;471;0.0276;0.0059;0.0014;0;350
412;470;0.0275;0.0059;0.00139;0;350
414;470;0.0273;0.0059;0.00138;0;350
416;470;0.0272;0.0058;0.00138;0;350
418;470;0.0271;0.0058;0.00138;0;350
420;470;0.027;0.0058;0.00137;0;350
422;470;0.0269;0.0058;0.00135;0;350
424;470;0.0268;0.0058;0.00134;0;350
426;470;0.0267;0.0057;0.00135;0;350
428;470;0.0266;0.0057;0.00134;0;350
430;470;0.0265;0.0057;0.00133;0;350
432;470;0.0264;0.0057;0.00132;0;406
434;469;0.0263;0.0056;0.00131;0;490
436;469;0.0262;0.0056;0.00131;0;490
438;469;0.0261;0.0056;0.00131;0;490
440;469;0.026;0.0056;0.0013;0;490
442;469;0.0259;0.0056;0.00129;0;420
444;469;0.0258;0.0055;0.00129;0;350
446;469;0.0257;0.0055;0.00129;0;350
448;469;0.0256;0.0055;0.00128;0;350
450;468;0.0255;0.0055;0.00127;0;350
452;468;0.0254;0.0054;0.00128;0;350
454;468;0.0253;0.0054;0.00128;0;350
456;468;0.0252;0.0054;0.00126;0;350
458;468;0.0251;0.0054;0.00125;0;350
460;468;0.025;0.0053;0.00126;0;420
462;467;0.0249;0.0053;0.00125;0;490
464;467;0.0248;0.0053;0.00123;0;490
466;467;0.0247;0.0053;0.00124;0;490
468;467;0.0246;0.0053;0.00122;0;490
470;467;0.0245;0.0052;0.00121;0;420
472;466;0.0244;0.0052;0.00121;0;350
474;466;0.0243;0.0052;0.0012;0;350
476;466;0.0242;0.0052;0.00118;0;350
478;466;0.0241;0.0052;0.00118;0;350
480;465;0.024;0.0051;0.00117;0;350
482;465;0.0239;0.0051;0.00116;0;350
484;465;0.0238;0.0051;0.00114;0;350
486;465;0.0237;0.0051;0.00115;0;350
488;465;0.0236;0.0050;0.00114;0;350
490;464;0.0235;0.0050;0.00113;0;350
492;464;0.0234;0.0050;0.00112;0;350
494;464;0.0233;0.0050;0.00113;0;350
496;464;0.0232;0.0049;0.00113;0;420
498;463;0.023;0.0049;0.00112;0;490
500;463;0.023;0.0049;0.0011;0;490
502;463;0.0228;0.0049;0.00111;0;490
504;463;0.0227;0.0048;0.0011;0;490
506;462;0.0226;0.0048;0.0011;0;420
508;462;0.0225;0.0048;0.00108;0;350
510;462;0.0224;0.0048;0.00109;0;350
512;462;0.0223;0.0048;0.00108;0;350
514;461;0.0222;0.0047;0.00106;0;350
516;461;0.0221;0.0047;0.00106;0;350
518;461;0.022;0.0047;0.00106;0;350
520;460;0.0219;0.0047;0.00105;0;350
522;460;0.0218;0.0046;0.00104;0;350
524;460;0.0217;0.0046;0.00105;0;350
526;459;0.0216;0.0046;0.00104;0;448
528;459;0.0215;0.0046;0.00103;0;490
530;459;0.0214;0.0046;0.00103;0;490
532;458;0.0213;0.0045;0.00103;0;490
534;458;0.0212;0.0045;0.00102;0;490
536;458;0.0211;0.0045;0.00101;0;392
538;457;0.021;0.0045;0.00101;0;350
540;457;0.0209;0.0044;0.001;0;350
542;457;0.0208;0.0044;0.000982;0;350
544;456;0.0207;0.0044;0.00098;0;350
546;456;0.0206;0.0044;0.000973;0;350
548;455;0.0205;0.0044;0.000959;0;350
550;455;0.0204;0.0043;0.000952;0;350
552;455;0.0203;0.0043;0.000953;0;350
554;454;0.0202;0.0043;0.00094;0;350
556;454;0.0201;0.0043;0.000927;0;350
558;453;0.02;0.0042;0.000931;0;350
560;453;0.0199;0.0042;0.00092;0;490
562;453;0.0198;0.0042;0.000912;1.49;490
564;452;0.0198;0.0042;0.000922;1.48;490
566;452;0.0198;0.0042;0.000925;1.48;490
568;451;0.0198;0.0042;0.000915;1.48;490
570;451;0.0198;0.0042;0.00092;1.48;350
572;451;0.0198;0.0042;0.000922;1.48;350
574;451;0.0198;0.0042;0.000915;1.48;350
576;451;0.0198;0.0042;0.000907;1.48;350
578;451;0.0198;0.0042;0.000914;1.48;350
580;451;0.0198;0.0042;0.000909;1.48;350
582;451;0.0198;0.0042;0.0009;1.48;350
584;451;0.0198;0.0042;0.000909;1.48;350
586;451;0.0198;0.0042;0.000902;1.48;350
588;451;0.0198;0.0042;0.000895;1.48;350
590;451;0.0198;0.0042;0.000892;1.48;378
592;451;0.0198;0.0042;0.000895;1.48;490
594;450;0.0198;0.0042;0.00089;1.48;490
596;450;0.0198;0.0043;0.000882;1.48;490
598;450;0.0198;0.0042;0.000892;1.48;490
600;449;0.0198;0.0043;0.000887;1.47;448
602;449;0.0198;0.0043;0.000873;1.47;350
604;448;0.0198;0.0043;0.000886;1.47;350
606;448;0.0198;0.0043;0.000882;1.47;350
608;447;0.0198;0.0043;0.000876;1.46;350
610;447;0.0198;0.0043;0.000882;1.46;350
612;446;0.0198;0.0043;0.000883;1.46;350
614;446;0.0198;0.0043;0.000874;1.46;350
616;445;0.0198;0.0043;0.000876;1.46;350
618;445;0.0198;0.0043;0.000877;1.45;350
620;445;0.0198;0.0043;0.000868;1.45;350
622;444;0.0198;0.0043;0.00087;1.45;364
624;444;0.0198;0.0043;0.00087;1.45;490
626;443;0.0198;0.0043;0.00086;1.45;490
628;443;0.0198;0.0043;0.000864;1.44;490
630;443;0.0198;0.0043;0.000862;1.44;490
632;442;0.0198;0.0043;0.000847;1.44;476
634;442;0.0198;0.0043;0.000858;1.44;350
636;441;0.0198;0.0043;0.000849;1.43;350
638;441;0.0198;0.0043;0.000843;1.43;350
640;440;0.0198;0.0043;0.000849;1.43;350
642;440;0.0198;0.0043;0.000839;1.43;350
644;439;0.0198;0.0043;0.000844;1.42;350
646;438;0.0198;0.0043;0.000846;1.42;350
648;438;0.0198;0.0043;0.000837;1.42;350
650;437;0.0198;0.0043;0.000846;1.42;350
652;437;0.0198;0.0043;0.000841;1.41;350
654;436;0.0198;0.0043;0.000836;1.41;476
656;436;0.0198;0.0043;0.000842;1.41;490
658;435;0.0198;0.0043;0.000835;1.41;490
660;435;0.0198;0.0043;0.000833;1.4;490
662;434;0.0198;0.0043;0.000837;1.4;490
664;434;0.0198;0.0043;0.000831;1.4;364
666;433;0.0198;0.0043;0.000836;1.39;350
668;433;0.0198;0.0043;0.00083;1.39;350
670;432;0.0198;0.0043;0.000827;1.39;350
672;431;0.0198;0.0043;0.000828;1.38;350
674;430;0.0198;0.0043;0.00082;1.38;350
676;429;0.0198;0.0043;0.000832;1.37;350
678;428;0.0198;0.0043;0.000825;1.37;350
680;428;0.0198;0.0043;0.000834;1.36;350
682;427;0.0198;0.0043;0.000832;1.36;350
684;425;0.0198;0.0043;0.000827;1.35;462
686;424;0.0198;0.0043;0.000831;1.35;490
688;423;0.0198;0.0043;0.000817;1.34;490
690;422;0.0198;0.0043;0.000831;1.34;490
692;422;0.0198;0.0043;0.000823;1.33;490
694;421;0.0198;0.0043;0.000825;1.33;364
696;420;0.0198;0.0043;0.000822;1.32;350
698;419;0.0198;0.0043;0.000811;1.32;350
700;418;0.0198;0.0043;0.000817;1.31;350
702;418;0.0198;0.0043;0.000808;1.31;350
704;417;0.0198;0.0043;0.000811;1.31;350
706;417;0.0198;0.0043;0.000807;1.31;350
708;416;0.0198;0.0043;0.000797;1.3;350
710;416;0.0198;0.0043;0.000808;1.3;350
712;415;0.0198;0.0043;0.000795;1.3;350
714;415;0.0198;0.0043;0.000801;1.29;350
716;414;0.0198;0.0043;0.000791;1.29;490
718;413;0.0198;0.0043;0.000789;1.28;490
720;413;0.0198;0.0043;0.000795;1.28;490
722;413;0.0198;0.0043;0.00078;1.28;490
724;412;0.0198;0.0043;0.000794;1.27;476
726;412;0.0198;0.0043;0.000786;1.27;350
728;411;0.0198;0.0043;0.000795;1.27;350
730;411;0.0198;0.0043;0.000789;1.26;350
732;410;0.0198;0.0043;0.000787;1.26;350
734;410;0.0198;0.0043;0.00079;1.25;350
736;409;0.0198;0.0043;0.000783;1.25;350
738;409;0.0198;0.0043;0.000793;1.25;350
740;408;0.0198;0.0043;0.000783;1.25;350
742;408;0.0198;0.0043;0.000785;1.25;350
744;407;0.0198;0.0043;0.000779;1.24;350
746;407;0.0198;0.0044;0.000772;1.24;350
748;407;0.0198;0.0043;0.000777;1.23;392
750;406;0.0198;0.0044;0.000769;1.23;490
752;406;0.0198;0.0044;0.000775;1.23;490
754;405;0.0198;0.0044;0.000772;1.22;490
756;405;0.0198;0.0044;0.000759;1.22;490
758;404;0.0198;0.0044;0.000768;1.22;434
760;404;0.0198;0.0044;0.000759;1.21;350
762;404;0.0198;0.0044;0.000762;1.21;350
764;403;0.0198;0.0044;0.000763;1.21;350
766;403;0.0198;0.0044;0.000754;1.21;350
768;403;0.0198;0.0044;0.000759;1.2;350
770;402;0.0198;0.0044;0.000753;1.2;350
772;402;0.0198;0.0044;0.000752;1.2;350
774;402;0.0198;0.0044;0.000755;1.19;350
776;401;0.0198;0.0044;0.000742;1.19;350
778;401;0.0198;0.0044;0.000755;1.19;350
780;401;0.0198;0.0044;0.000749;1.19;490
782;400;0.0198;0.0044;0.000751;1.18;490
784;400;0.0198;0.0044;0.000753;1.18;490
786;399;0.0198;0.0044;0.000742;1.18;490
788;399;0.0198;0.0044;0.000752;1.17;490
790;399;0.0198;0.0044;0.000743;1.17;350
792;398;0.0198;0.0044;0.000744;1.17;350
794;398;0.0198;0.0044;0.000746;1.16;350
796;398;0.0198;0.0044;0.000728;1.16;350
798;398;0.0198;0.0044;0.000737;1.16;350
800;397;0.0198;0.0044;0.000732;1.15;350
802;397;0.0198;0.0044;0.00073;1.15;350
804;397;0.0198;0.0044;0.000738;1.15;350
806;396;0.0198;0.0044;0.000726;1.15;350
808;396;0.0198;0.0044;0.000736;1.15;350
810;396;0.0198;0.0044;0.000728;1.14;434
812;396;0.0198;0.0044;0.000733;1.14;490
814;395;0.0198;0.0044;0.000724;1.14;490
816;395;0.0198;0.0044;0.000723;1.13;490
818;395;0.0198;0.0044;0.000724;1.13;490
820;395;0.0198;0.0044;0.000714;1.13;406
822;394;0.0198;0.0044;0.000718;1.12;350
824;394;0.0198;0.0044;0.000711;1.12;350
826;394;0.0198;0.0044;0.00071;1.12;350
828;393;0.0198;0.0044;0.000702;1.11;350
830;393;0.0198;0.0044;0.000702;1.11;350
832;393;0.0198;0.0044;0.000697;1.11;350
834;393;0.0198;0.0044;0.000696;1.1;350
836;392;0.0198;0.0044;0.000697;1.1;350
838;392;0.0198;0.0044;0.000689;1.1;350
840;392;0.0198;0.0044;0.000698;1.1;350
842;392;0.0198;0.0044;0.000692;1.1;462
844;392;0.0198;0.0044;0.000693;1.09;490
846;391;0.0198;0.0044;0.000693;1.09;490
848;391;0.0198;0.0044;0.000686;1.09;490
850;391;0.0198;0.0044;0.000695;1.08;490
852;391;0.0198;0.0044;0.000689;1.08;378
854;390;0.0198;0.0044;0.000688;1.08;350
856;390;0.0198;0.0044;0.000693;1.08;350
858;390;0.0198;0.0044;0.000683;1.08;350
860;390;0.0198;0.0044;0.000694;1.07;350
862;390;0.0198;0.0044;0.000685;1.07;350
864;390;0.0198;0.0044;0.000686;1.06;350
866;389;0.0198;0.0044;0.000686;1.06;350
868;389;0.0198;0.0044;0.000678;1.06;350
870;389;0.0198;0.0044;0.000684;1.06;350
872;389;0.0198;0.0044;0.000674;1.06;350
874;389;0.0198;0.0044;0.00068;1.05;476
876;389;0.0198;0.0044;0.000672;1.05;490
878;388;0.0198;0.0044;0.00067;1.05;490
880;388;0.0198;0.0044;0.000668;1.05;490
882;388;0.0198;0.0044;0.000661;1.04;490
884;388;0.0198;0.0044;0.000666;1.04;350
886;388;0.0198;0.0045;0.000656;1.04;350
888;388;0.0198;0.0045;0.00066;1.04;350
890;387;0.0198;0.0045;0.000653;1.03;350
892;387;0.0198;0.0045;0.000654;1.03;350
894;387;0.0198;0.0045;0.000654;1.03;350
896;387;0.0198;0.0045;0.000646;1.03;350
898;387;0.0198;0.0045;0.000652;1.03;350
900;387;0.0198;0.0045;0.000643;1.02;350
902;387;0.0198;0.0047;0.000299;2.04;350
904;387;0.0198;0.0047;0.000299;2.03501;350
906;386;0.0199;0.0047;0.000299;2.03003;350
908;386;0.0199;0.0048;0.0003;2.02506;350
910;386;0.02;0.0048;0.000301;2.0201;350
912;386;0.0201;0.0048;0.000302;2.01515;350
914;386;0.0201;0.0048;0.000303;2.01021;350
916;385;0.0202;0.0048;0.000304;2.00528;350
918;385;0.0202;0.0048;0.000305;2.00036;350
920;385;0.0203;0.0049;0.000306;1.99545;350
922;385;0.0204;0.0049;0.000306;1.99055;350
924;385;0.0204;0.0049;0.000307;1.98566;350
926;385;0.0205;0.0049;0.000308;1.98078;350
928;385;0.0206;0.0049;0.000309;1.97591;350
930;385;0.0206;0.0049;0.00031;1.97105;350
932;385.054;0.0207;0.0050;0.000311;1.9662;350
934;385.112;0.0207;0.0050;0.000312;1.96136;350
936;385.174;0.0208;0.0050;0.000313;1.95653;350
938;385.24;0.0209;0.0050;0.000314;1.95171;350
940;385.31;0.0209;0.0050;0.000315;1.9469;350
942;385.384;0.021;0.0050;0.000316;1.9421;350
944;385.462;0.021;0.0051;0.000317;1.93731;350
946;385.544;0.0211;0.0051;0.000318;1.93253;350
948;385.63;0.0212;0.0051;0.000318;1.92776;350
950;385.72;0.0212;0.0051;0.000319;1.923;350
952;385.814;0.0213;0.0051;0.00032;1.91825;350
954;385.912;0.0214;0.0051;0.000321;1.91351;350
956;386.014;0.0214;0.0052;0.000322;1.90878;350
958;386.12;0.0215;0.0052;0.000323;1.90406;350
960;386.23;0.0215;0.0052;0.000324;1.89935;350
962;386.344;0.0216;0.0052;0.000325;1.89465;350
964;386.462;0.0217;0.0052;0.000326;1.88996;350
966;386.584;0.0217;0.0052;0.000327;1.88528;350
968;386.71;0.0218;0.0053;0.000328;1.88061;350
970;386.84;0.0218;0.0053;0.000328;1.87595;350
972;386.974;0.0219;0.0053;0.000329;1.8713;350
974;387.112;0.022;0.0053;0.00033;1.86666;350
976;387.254;0.022;0.0053;0.000331;1.86203;350
978;387.4;0.0221;0.0053;0.000332;1.85741;350
980;387.55;0.0221;0.0054;0.000333;1.8528;350
982;387.704;0.0222;0.0054;0.000334;1.8482;350
984;387.862;0.0223;0.0054;0.000335;1.84361;350
986;388.024;0.0223;0.0054;0.000336;1.83903;350
988;388.19;0.0224;0.0054;0.000337;1.83446;350
990;388.36;0.0225;0.0054;0.000338;1.8299;350
992;388.534;0.0225;0.0055;0.000339;1.82535;350
994;388.712;0.0226;0.0055;0.00034;1.82081;350
996;388.894;0.0226;0.0055;0.00034;1.81628;350
998;389.08;0.0227;0.0055;0.000341;1.81176;350
1000;389.27;0.0228;0.0055;0.000342;1.80725;350
1002;389.464;0.0228;0.0055;0.000343;1.80275;350
1004;389.662;0.0229;0.0056;0.000344;1.79826;350
1006;389.864;0.0229;0.0056;0.000345;1.79378;350
1008;390.07;0.023;0.0056;0.000346;1.78931;350
1010;390.28;0.0231;0.0056;0.000347;1.78485;350
1012;390.494;0.0231;0.0056;0.000348;1.7804;350
1014;390.712;0.0232;0.0056;0.000349;1.77596;350
1016;390.934;0.0233;0.0057;0.00035;1.77153;350
1018;391.16;0.0233;0.0057;0.00035;1.76711;350
1020;391.39;0.0234;0.0057;0.000351;1.7627;350
1022;391.624;0.0234;0.0057;0.000352;1.7583;350
1024;391.862;0.0235;0.0057;0.000353;1.75391;350
1026;392.104;0.0236;0.0057;0.000354;1.74953;350
1028;392.35;0.0236;0.0058;0.000355;1.74516;350
1030;392.6;0.0237;0.0058;0.000356;1.7408;350
1032;392.854;0.0237;0.0058;0.000357;1.73645;350
1034;393.112;0.0238;0.0058;0.000358;1.73211;350
1036;393.374;0.0239;0.0058;0.000359;1.72778;350
1038;393.64;0.0239;0.0058;0.00036;1.72346;350
1040;393.91;0.024;0.0059;0.000361;1.71915;350
1042;394.184;0.0241;0.0059;0.000361;1.71485;350
1044;394.462;0.0241;0.0059;0.000362;1.71056;350
1046;394.744;0.0242;0.0059;0.000363;1.70628;350
1048;395.03;0.0242;0.0059;0.000364;1.70201;350
1050;395.32;0.0243;0.0059;0.000365;1.69775;350
1052;395.614;0.0244;0.0060;0.000366;1.6935;350
1054;395.912;0.0244;0.0060;0.000367;1.68926;350
1056;396.214;0.0245;0.0060;0.000368;1.68503;350
1058;396.52;0.0245;0.0060;0.000369;1.68081;350
1060;396.83;0.0246;0.0060;0.00037;1.6766;350
1062;397.144;0.0247;0.0060;0.000371;1.6724;350
1064;397.462;0.0247;0.0061;0.000372;1.66821;350
1066;397.784;0.0248;0.0061;0.000372;1.66403;350
1068;398.11;0.0248;0.0061;0.000373;1.65986;350
1070;398.44;0.0249;0.0061;0.000374;1.6557;350
1072;398.774;0.025;0.0061;0.000375;1.65155;350
1074;399.112;0.025;0.0061;0.000376;1.64741;350
1076;399.454;0.0251;0.0061;0.000377;1.64329;350
1078;399.8;0.0252;0.0062;0.000378;1.63919;350
1080;400.15;0.0252;0.0062;0.000379;1.63511;350
1082;400.504;0.0253;0.0062;0.00038;1.63105;350
1084;400.862;0.0253;0.0062;0.000381;1.62701;350
1086;401.224;0.0254;0.0062;0.000382;1.62299;350
1088;401.59;0.0255;0.0063;0.000383;1.61899;350
1090;401.96;0.0255;0.0063;0.000383;1.61501;350
1092;402.334;0.0256;0.0063;0.000384;1.61105;350
1094;402.707;0.0257;0.0063;0.000385;1.60711;350
1096;403.079;0.0257;0.0063;0.000386;1.60319;350
1098;403.45;0.0258;0.0063;0.000387;1.59929;350
1100;403.82;0.0258;0.0064;0.000388;1.59541;350
1102;404.189;0.0259;0.0064;0.000389;1.59155;350
1104;404.557;0.026;0.0064;0.00039;1.58771;350
1106;404.924;0.026;0.0064;0.000391;1.58389;350
1108;405.29;0.0261;0.0064;0.000392;1.58009;350
1110;405.655;0.0261;0.0064;0.000393;1.57631;350
1112;406.019;0.0262;0.0064;0.000394;1.57255;350
1114;406.382;0.0263;0.0065;0.000394;1.56881;350
1116;406.744;0.0263;0.0065;0.000395;1.56509;350
1118;407.105;0.0264;0.0065;0.000396;1.56139;350
1120;407.465;0.0264;0.0065;0.000397;1.55771;350
1122;407.824;0.0265;0.0065;0.000398;1.55405;350
1124;408.182;0.0266;0.0065;0.000399;1.55041;350
1126;408.539;0.0266;0.0066;0.0004;1.54679;350
1128;408.895;0.0267;0.0066;0.000401;1.54319;350
1130;409.25;0.0268;0.0066;0.000402;1.53961;350
1132;409.604;0.0268;0.0066;0.000403;1.53605;350
1134;409.957;0.0269;0.0066;0.000404;1.53251;350
1136;410.309;0.0269;0.0066;0.000404;1.52899;350
1138;410.66;0.027;0.0067;0.000405;1.52549;350
1140;411.01;0.0271;0.0067;0.000406;1.52201;350
1142;411.359;0.0271;0.0067;0.000407;1.51855;350
1144;411.707;0.0272;0.0067;0.000408;1.51511;350
1146;412.054;0.0272;0.0067;0.000409;1.51169;350
1148;412.4;0.0273;0.0067;0.00041;1.50829;350
1150;412.745;0.0274;0.0068;0.000411;1.50491;350
1152;413.089;0.0274;0.0068;0.000412;1.50155;350
1154;413.432;0.0275;0.0068;0.000413;1.49821;350
1156;413.774;0.0275;0.0068;0.000414;1.49489;350
1158;414.115;0.0276;0.0068;0.000415;1.49159;350
1160;414.455;0.0277;0.0068;0.000415;1.48831;350
1162;414.794;0.0277;0.0069;0.000416;1.48505;350
1164;415.132;0.0278;0.0069;0.000417;1.48181;350
1166;415.469;0.0279;0.0069;0.000418;1.47859;350
1168;415.805;0.0279;0.0069;0.000419;1.47539;350
1170;416.14;0.028;0.0069;0.00042;1.47221;350
1172;416.474;0.028;0.0069;0.000421;1.46905;350
1174;416.807;0.0281;0.0070;0.000422;1.46591;350
1176;417.139;0.0282;0.0070;0.000423;1.46279;350
1178;417.47;0.0282;0.0070;0.000424;1.45969;350
1180;417.8;0.0283;0.0070;0.000425;1.45661;350
1182;418.129;0.0284;0.0070;0.000426;1.45355;350
1184;418.457;0.0284;0.0070;0.000426;1.45051;350
1186;418.784;0.0285;0.0071;0.000427;1.44749;350
1188;419.11;0.0285;0.0071;0.000428;1.44449;350
1190;419.435;0.0286;0.0071;0.000429;1.44151;350
1192;419.759;0.0287;0.0071;0.00043;1.43855;350
1194;420.082;0.0287;0.0071;0.000431;1.43561;350
1196;420.404;0.0288;0.0071;0.000432;1.43269;350
1198;420.725;0.0288;0.0072;0.000433;1.42979;350
1200;421.045;0.0289;0.0072;0.000434;1.42691;350
1202;421.364;0.029;0.0072;0.000435;1.42405;350
1204;421.682;0.029;0.0072;0.000436;1.42121;350
1206;421.999;0.0291;0.0072;0.000436;1.41839;350
1208;422.315;0.0291;0.0072;0.000437;1.41559;350
1210;422.63;0.0292;0.0072;0.000438;1.41281;350
1212;422.944;0.0293;0.0073;0.000439;1.41005;350
1214;423.257;0.0293;0.0073;0.00044;1.40731;350
1216;423.569;0.0294;0.0073;0.000441;1.40459;350
1218;423.88;0.0295;0.0073;0.000442;1.40189;350
1220;424.19;0.0295;0.0073;0.000443;1.39921;350
1222;424.499;0.0296;0.0074;0.000444;1.39655;350
1224;424.807;0.0296;0.0074;0.000445;1.39391;350
1226;425.114;0.0297;0.0074;0.000446;1.39129;350
1228;425.42;0.0298;0.0074;0.000446;1.38869;350
1230;425.725;0.0298;0.0074;0.000447;1.38611;350
1232;426.029;0.0299;0.0074;0.000448;1.38355;350
1234;426.332;0.0299;0.0075;0.000449;1.38101;350
1236;426.634;0.03;0.0075;0.00045;1.37849;350
1238;426.935;0.0301;0.0075;0.000451;1.37599;350
1240;427.235;0.0301;0.0075;0.000452;1.37351;350
1242;427.534;0.0302;0.0075;0.000453;1.37105;350
1244;427.832;0.0303;0.0075;0.000454;1.3686;350
1246;428.129;0.0303;0.0075;0.000455;1.36616;350
1248;428.425;0.0304;0.0076;0.000456;1.36373;350
1250;428.72;0.0304;0.0076;0.000457;1.36131;350
1252;429.014;0.0305;0.0076;0.000458;1.3589;350
1254;429.307;0.0306;0.0076;0.000458;1.3565;350
1256;429.599;0.0306;0.0076;0.000459;1.35411;350
1258;429.89;0.0307;0.0076;0.00046;1.35173;350
1260;430.18;0.0307;0.0077;0.000461;1.34936;350
1262;430.469;0.0308;0.0077;0.000462;1.347;350
1264;430.757;0.0309;0.0077;0.000463;1.34465;350
1266;431.044;0.0309;0.0077;0.000464;1.34231;350
1268;431.33;0.031;0.0077;0.000465;1.33998;350
1270;431.615;0.0311;0.0077;0.000466;1.33766;350
1272;431.899;0.0311;0.0078;0.000467;1.33535;350
1274;432.182;0.0312;0.0078;0.000468;1.33305;350
1276;432.464;0.0312;0.0078;0.000468;1.33076;350
1278;432.745;0.0313;0.0078;0.000469;1.32848;350
1280;433.025;0.0314;0.0078;0.00047;1.32621;350
1282;433.304;0.0314;0.0078;0.000471;1.32395;350
1284;433.582;0.0315;0.0079;0.000472;1.32174;350
1286;433.859;0.0315;0.0079;0.000473;1.31958;350
1288;434.135;0.0316;0.0079;0.000474;1.31747;350
1290;434.41;0.0317;0.0079;0.000475;1.31541;350
1292;434.684;0.0317;0.0079;0.000476;1.3134;350
1294;434.957;0.0318;0.0079;0.000477;1.31144;350
1296;435.229;0.0318;0.0080;0.000478;1.30953;350
1298;435.5;0.0319;0.0080;0.000479;1.30767;350
1300;435.77;0.032;0.0080;0.000479;1.30586;350
1302;436.039;0.032;0.0080;0.00048;1.3041;350
1304;436.307;0.0321;0.0080;0.000481;1.30239;350
1306;436.574;0.0322;0.0080;0.000482;1.30073;350
1308;436.84;0.0322;0.0081;0.000483;1.29912;350
1310;437.105;0.0323;0.0081;0.000484;1.29756;350
1312;437.369;0.0323;0.0081;0.000485;1.29605;350
1314;437.632;0.0324;0.0081;0.000486;1.29459;350
1316;437.894;0.0325;0.0081;0.000487;1.29318;350
1318;438.155;0.0325;0.0081;0.000488;1.29182;350
1320;438.415;0.0326;0.0082;0.000488;1.29051;350
1322;438.674;0.0326;0.0082;0.000489;1.28925;350
1324;438.932;0.0327;0.0082;0.00049;1.28804;350
1326;439.189;0.0328;0.0082;0.000491;1.28688;350
1328;439.445;0.0328;0.0082;0.000492;1.28577;350
1330;439.7;0.0329;0.0082;0.000493;1.28471;350
1332;439.954;0.033;0.0083;0.000494;1.2837;350
1334;440.207;0.033;0.0083;0.000495;1.28274;350
1336;440.459;0.0331;0.0083;0.000496;1.28183;350
1338;440.71;0.0331;0.0083;0.000497;1.28097;350
1340;440.96;0.0332;0.0083;0.000498;1.28016;350
1342;441.209;0.0333;0.0083;0.000498;1.2794;350
1344;441.457;0.0333;0.0084;0.000499;1.27869;350
1346;441.704;0.0334;0.0084;0.0005;1.27803;350
1348;441.95;0.0334;0.0084;0.000501;1.27742;350
1350;442.195;0.0335;0.0084;0.000502;1.27;350
1352;442.439;0.0336;0.0084;0.000503;1.27;350
1354;442.682;0.0336;0.0084;0.000504;1.27;350
1356;442.924;0.0337;0.0077;0.00133;1.27;350
1358;443.165;0.0338;0.0077;0.00133;1.28;350
1360;443.405;0.0338;0.0077;0.00133;1.28;350
1362;443.644;0.0339;0.0077;0.00133;1.28;350
1364;443.882;0.0339;0.0078;0.00134;1.29;350
1366;444.119;0.034;0.0078;0.00134;1.29;350
1368;444.355;0.0341;0.0078;0.00134;1.29;350
1370;444.59;0.0341;0.0078;0.00135;1.29;350
1372;444.824;0.0342;0.0078;0.00135;1.29;350
1374;445.057;0.0342;0.0078;0.00135;1.3;350
1376;445.289;0.0343;0.0078;0.00135;1.3;350
1378;445.52;0.0344;0.0079;0.00133;1.3;350
1380;445.75;0.0344;0.0079;0.00133;1.3;350
1382;445.979;0.0345;0.0079;0.00132;1.31;350
1384;446.207;0.0345;0.0080;0.0013;1.31;350
1386;446.434;0.0346;0.0080;0.00128;1.31;350
1388;446.66;0.0347;0.0080;0.00126;1.32;350
1390;446.885;0.0347;0.0081;0.00124;1.32;350
1392;447.109;0.0348;0.0081;0.00124;1.32;350
1394;447.332;0.0349;0.0081;0.00122;1.32;350
1396;447.554;0.0349;0.0082;0.00121;1.32;350
1398;447.775;0.035;0.0082;0.00119;1.33;350
1400;447.995;0.035;0.0082;0.00117;1.33;350
1402;448.214;0.0351;0.0083;0.00115;1.33;350
1404;448.432;0.0352;0.0083;0.00114;1.34;350
1406;448.649;0.0352;0.0083;0.00112;1.34;350
1408;448.865;0.0353;0.0084;0.00112;1.34;350
1410;449.08;0.0353;0.0084;0.0011;1.34;350
1412;449.294;0.0354;0.0084;0.00109;1.35;350
1414;449.507;0.0355;0.0084;0.00107;1.35;350
1416;449.719;0.0355;0.0085;0.00104;1.35;350
1418;449.93;0.0356;0.0085;0.00104;1.35;350
1420;450.14;0.0357;0.0085;0.00103;1.35;350
1422;450.349;0.0357;0.0086;0.00101;1.35;350
1424;450.557;0.0358;0.0086;0.000993;1.36;350
1426;450.764;0.0358;0.0086;0.000984;1.36;350
1428;450.97;0.0359;0.0087;0.000969;1.37;350
1430;451.175;0.036;0.0087;0.000961;1.36;350
1432;451.379;0.036;0.0087;0.000946;1.36;350
1434;451.582;0.0361;0.0087;0.000932;1.37;350
1436;451.784;0.0361;0.0088;0.000917;1.37;350
1438;451.985;0.0362;0.0088;0.000903;1.37;350
1440;452.185;0.0363;0.0088;0.000881;1.37;350
1442;452.384;0.0363;0.0089;0.000885;1.38;350
1444;452.582;0.0364;0.0089;0.000887;1.38;350
1446;452.779;0.0365;0.0089;0.000883;1.37;350
1448;452.975;0.0365;0.0089;0.000869;1.38;350
1450;453.17;0.0366;0.0089;0.000868;1.38;350
1452;453.364;0.0366;0.0090;0.000854;1.38;350
1454;453.557;0.0367;0.0090;0.000853;1.38;350
1456;453.749;0.0368;0.0090;0.000845;1.38;350
1458;453.94;0.0368;0.0090;0.000835;1.39;350
1460;454.13;0.0369;0.0091;0.000841;1.39;350
1462;454.319;0.0369;0.0091;0.000836;1.39;350
1464;454.507;0.037;0.0091;0.000828;1.39;350
1466;454.694;0.0371;0.0091;0.000829;1.39;350
1468;454.88;0.0371;0.0091;0.000824;1.39;350
1470;455.065;0.0372;0.0091;0.000833;1.4;350
1472;455.249;0.0372;0.0092;0.00083;1.4;350
1474;455.432;0.0373;0.0092;0.00082;1.4;350
1476;455.614;0.0374;0.0092;0.000809;1.4;350
1478;455.795;0.0374;0.0092;0.000817;1.4;350
1480;455.975;0.0375;0.0092;0.000814;1.4;350
1482;455.975;0.0376;0.0093;0.000814;1.41;350
1484;456;0.0376;0.0093;0.00082;1.41;350
1486;456;0.0377;0.0093;0.000818;1.41;350
1488;456;0.0377;0.0093;0.000816;1.41;350
1490;456;0.0378;0.0093;0.000811;1.41;350
1492;455;0.0379;0.0094;0.000808;1.41;350
1494;455;0.0379;0.0094;0.000811;1.42;350
1496;455;0.038;0.0094;0.000817;1.42;350
1498;455;0.038;0.0094;0.00082;1.42;350
1500;455;0.0381;0.0094;0.000834;1.43;350
1502;455;0.0382;0.0094;0.000826;1.43;350
1504;455;0.0382;0.0094;0.000832;1.43;350
1506;455;0.0383;0.0094;0.000834;1.42;350
1508;455;0.0384;0.0095;0.000829;1.43;350
1510;455;0.0384;0.0095;0.000823;1.42;350
1512;455;0.0385;0.0095;0.000831;1.43;350
1514;455;0.0385;0.0095;0.00084;1.42;350
1516;454;0.0386;0.0095;0.00085;1.43;350
1518;454;0.0387;0.0095;0.000848;1.43;350
1520;454;0.0387;0.0096;0.000845;1.43;350
1522;454;0.0388;0.0096;0.000842;1.43;350
1524;454;0.0388;0.0096;0.000833;1.43;350
1526;454;0.0389;0.0096;0.000851;1.44;350
1528;454;0.039;0.0096;0.000861;1.44;350
1530;454;0.039;0.0096;0.000864;1.44;350
1532;454;0.0391;0.0096;0.000866;1.44;350
1534;454;0.0392;0.0097;0.000853;1.44;350
1536;454;0.0392;0.0097;0.000866;1.45;350
1538;454;0.0393;0.0097;0.000857;1.44;350
1540;454;0.0393;0.0097;0.000869;1.45;350
1542;454;0.0394;0.0097;0.000864;1.45;350
1544;454;0.0395;0.0097;0.000876;1.45;350
1546;454;0.0395;0.0098;0.000865;1.46;350
1548;454;0.0396;0.0098;0.000873;1.45;350
1550;453;0.0396;0.0098;0.000872;1.46;350
1552;453;0.0397;0.0098;0.000865;1.46;350
1554;453;0.0398;0.0098;0.000883;1.46;350
1556;453;0.0398;0.0098;0.000882;1.46;350
1558;453;0.0399;0.0098;0.000889;1.46;350
1560;453;0.04;0.0099;0.000889;1.47;350
1562;453;0.04;0.0099;0.000895;1.47;350
1564;453;0.0401;0.0099;0.000878;1.47;350
1566;453;0.0401;0.0099;0.000905;1.47;350
1568;453;0.0402;0.0099;0.000913;1.47;350
1570;453;0.0403;0.0099;0.000917;1.47;350
1572;453;0.0403;0.0099;0.000921;1.48;350
1574;453;0.0404;0.0099;0.000923;1.48;350
1576;453;0.0404;0.0100;0.000922;1.48;350
1578;453;0.0405;0.0100;0.000928;1.48;350
1580;453;0.0406;0.0100;0.000928;1.48;350
1582;452;0.0406;0.0100;0.000928;1.48;350
1584;452;0.0407;0.0100;0.000929;1.48;350
1586;452;0.0407;0.0100;0.000927;1.49;350
1588;452;0.0408;0.0101;0.000933;1.48;350
1590;452;0.0409;0.0101;0.000938;1.49;350
1592;452;0.0409;0.0101;0.000934;1.49;350
1594;452;0.041;0.0101;0.000928;1.49;350
1596;452;0.0411;0.0101;0.000929;1.49;350
1598;452;0.0411;0.0101;0.000945;1.49;350
1600;452;0.0412;0.0101;0.000952;1.49;350
1602;451;0.0412;0.0102;0.000948;1.49;350
1604;451;0.0413;0.0102;0.000954;1.49;350
1606;451;0.0414;0.0102;0.000962;1.49;350
1608;451;0.0414;0.0102;0.000951;1.5;350
1610;451;0.0415;0.0102;0.000948;1.5;350
1612;451;0.0415;0.0102;0.000965;1.5;350
1614;451;0.0416;0.0102;0.000969;1.5;350
1616;451;0.0417;0.0103;0.000954;1.5;350
1618;451;0.0417;0.0103;0.000965;1.5;350
1620;450;0.0418;0.0103;0.000972;1.51;350
1622;450;0.0419;0.0103;0.000971;1.5;350
1624;450;0.0419;0.0103;0.000968;1.5;350
1626;450;0.042;0.0103;0.000977;1.5;350
1628;450;0.042;0.0103;0.000994;1.51;350
1630;450;0.0421;0.0104;0.000986;1.51;350
1632;450;0.0422;0.0104;0.001;1.51;350
1634;450;0.0422;0.0104;0.00101;1.51;350
1636;450;0.0423;0.0104;0.00101;1.51;350
1638;449;0.0423;0.0104;0.000996;1.51;350
1640;449;0.0424;0.0104;0.00102;1.52;350
1642;449;0.0425;0.0104;0.00103;1.52;350
1644;449;0.0425;0.0105;0.00102;1.52;350
1646;449;0.0426;0.0104;0.00104;1.52;350
1648;449;0.0427;0.0105;0.00104;1.52;350
1650;449;0.0427;0.0105;0.00103;1.52;350
1652;449;0.0428;0.0105;0.00105;1.52;350
1654;448;0.0428;0.0105;0.00105;1.52;350
1656;448;0.0429;0.0105;0.00104;1.52;350
1658;448;0.043;0.0105;0.00106;1.52;350
1660;448;0.043;0.0105;0.00107;1.52;350
1662;448;0.0431;0.0106;0.00105;1.52;350
1664;448;0.0431;0.0106;0.00106;1.52;350
1666;448;0.0432;0.0106;0.00106;1.52;350
1668;447;0.0433;0.0106;0.00106;1.53;350
1670;447;0.0433;0.0107;0.00103;1.53;350
1672;447;0.0434;0.0107;0.00105;1.53;350
1674;447;0.0435;0.0107;0.00106;1.53;350
1676;447;0.0435;0.0107;0.00106;1.53;350
1678;447;0.0436;0.0107;0.00107;1.53;350
1680;447;0.0436;0.0107;0.00107;1.53;350
1682;446;0.0437;0.0107;0.00106;1.53;350
1684;446;0.0438;0.0107;0.00108;1.53;350
1686;446;0.0438;0.0107;0.00109;1.53;350
1688;446;0.0439;0.0108;0.00108;1.54;350
1690;446;0.0439;0.0108;0.0011;1.53;350
1692;446;0.044;0.0108;0.00109;1.53;350
1694;446;0.0441;0.0108;0.0011;1.53;350
1696;446;0.0441;0.0108;0.00111;1.53;350
1698;445;0.0442;0.0109;0.0011;1.53;350
1700;445;0.0442;0.0109;0.00112;1.53;350
1702;445;0.0443;0.0109;0.00111;1.54;350
1704;445;0.0444;0.0109;0.0011;1.54;350
1706;445;0.0444;0.0109;0.00112;1.53;350
1708;445;0.0445;0.0109;0.00112;1.54;350
1710;444;0.0446;0.0109;0.0011;1.53;350
1712;444;0.0446;0.0110;0.00111;1.54;350
1714;444;0.0447;0.0110;0.00113;1.54;350
1716;444;0.0447;0.0110;0.00113;1.54;350
1718;444;0.0448;0.0110;0.00113;1.54;350
1720;444;0.0449;0.0110;0.00114;1.54;350
1722;443;0.0449;0.0110;0.00114;1.54;350
1724;443;0.045;0.0110;0.00113;1.53;350
1726;443;0.045;0.0110;0.00114;1.54;350
1728;443;0.0451;0.0110;0.00114;1.54;350
1730;443;0.0452;0.0111;0.00113;1.54;350
1732;442;0.0452;0.0111;0.00115;1.54;350
1734;442;0.0453;0.0111;0.00115;1.54;350
1736;442;0.0454;0.0111;0.00115;1.54;350
1738;442;0.0454;0.0111;0.00116;1.54;350
1740;442;0.0455;0.0111;0.00115;1.54;350
1742;442;0.0455;0.0111;0.00117;1.55;350
1744;441;0.0456;0.0111;0.00117;1.54;350
1746;441;0.0457;0.0111;0.00118;1.54;350
1748;441;0.0457;0.0112;0.00118;1.54;350
1750;441;0.0458;0.0112;0.00117;1.54;350
1752;441;0.0458;0.0112;0.00118;1.54;350
1754;441;0.0459;0.0112;0.0012;1.54;350
1756;440;0.046;0.0112;0.00119;1.54;350
1758;440;0.046;0.0112;0.00119;1.54;350
1760;440;0.0461;0.0112;0.0012;1.54;350
1762;440;0.0462;0.0112;0.0012;1.54;350
1764;440;0.0462;0.0113;0.00119;1.54;350
1766;440;0.0463;0.0113;0.0012;1.54;350
1768;440;0.0463;0.0113;0.00119;1.53;350
1770;439;0.0464;0.0113;0.0012;1.54;350
1772;439;0.0465;0.0113;0.0012;1.54;350
1774;439;0.0465;0.0114;0.00119;1.54;350
1776;439;0.0466;0.0114;0.00123;1.54;350
1778;439;0.0466;0.0114;0.00122;1.54;350
1780;439;0.0467;0.0115;0.00122;1.54;350
1782;439;0.0468;0.0115;0.00122;1.55;350
1784;438;0.0468;0.0115;0.00124;1.54;350
1786;438;0.0469;0.0115;0.00124;1.55;350
1788;438;0.0469;0.0115;0.00126;1.54;350
1790;438;0.047;0.0115;0.00124;1.55;350
1792;438;0.0471;0.0115;0.00125;1.54;350
1794;438;0.0471;0.0115;0.00126;1.54;350
1796;438;0.0472;0.0115;0.00126;1.55;350
1798;438;0.0473;0.0115;0.00127;1.54;350
1800;437;0.0473;0.0115;0.00128;1.54;350
1802;437;0.0474;0.0116;0.00127;1.55;350
1804;437;0.0474;0.0116;0.00128;1.55;350
1806;437;0.0475;0.0116;0.00128;1.55;350
1808;437;0.0476;0.0116;0.00129;1.54;350
1810;437;0.0476;0.0116;0.00129;1.55;350
1812;437;0.0477;0.0116;0.00129;1.55;350
1814;436;0.0477;0.0116;0.00131;1.55;350
1816;436;0.0478;0.0117;0.00128;1.55;350
1818;436;0.0479;0.0116;0.00133;1.54;350
1820;436;0.0479;0.0117;0.00131;1.55;350
1822;436;0.048;0.0117;0.00132;1.55;350
1824;436;0.0481;0.0117;0.00133;1.55;350
1826;436;0.0481;0.0117;0.00133;1.55;350
1828;435;0.0482;0.0117;0.00132;1.55;350
1830;435;0.0482;0.0117;0.00131;1.55;350
1832;435;0.0483;0.0117;0.00134;1.55;350
1834;435;0.0484;0.0118;0.00133;1.55;350
1836;435;0.0484;0.0118;0.00134;1.55;350
1838;435;0.0485;0.0118;0.00134;1.55;350
1840;435;0.0485;0.0118;0.00134;0.775;350
1842;434;0.0485;0.0118;0.00134;0.772;350
1844;434;0.0485;0.0118;0.00135;0.773;350
1846;434;0.0485;0.0118;0.00133;0.772;350
1848;434;0.0485;0.0118;0.00134;0.773;350
1850;434;0.0485;0.0118;0.00133;0.773;350
1852;434;0.0485;0.0118;0.00135;0.772;350
1854;434;0.0485;0.0118;0.00135;0.776;350
1856;434;0.0485;0.0118;0.00135;0.774;350
1858;434;0.0485;0.0118;0.00136;0.773;350
1860;434;0.0485;0.0118;0.00136;0.776;350
1862;434;0.0485;0.0117;0.00138;0.773;350
1864;434;0.0485;0.0118;0.00136;0.775;350
1866;434;0.0485;0.0117;0.00137;0.774;350
1868;434;0.0485;0.0118;0.00136;0.777;350
1870;434;0.0485;0.0117;0.00139;0.777;350
1872;434;0.0485;0.0117;0.0014;0.777;350
1874;434;0.0485;0.0117;0.00138;0.781;350
1876;434;0.0485;0.0117;0.0014;0.782;350
1878;435;0.0485;0.0117;0.0014;0.784;350
1880;435;0.0485;0.0117;0.0014;0.785;350
1882;435;0.0485;0.0117;0.0014;0.786;350
1884;435;0.0485;0.0117;0.00138;0.788;350
1886;436;0.0485;0.0117;0.00138;0.789;350
1888;436;0.0485;0.0117;0.00138;0.792;350
1890;436;0.0485;0.0117;0.0014;0.792;350
1892;436;0.0485;0.0117;0.00139;0.794;350
1894;437;0.0485;0.0117;0.0014;0.797;350
1896;437;0.0485;0.0117;0.00139;0.797;350
1898;437;0.0485;0.0117;0.00139;0.801;350
1900;438;0.0485;0.0117;0.0014;0.805;350
1902;438;0.0485;0.0117;0.0014;0.811;350
1904;439;0.0485;0.0117;0.00141;0.811;350
1906;439;0.0485;0.0117;0.0014;0.812;350
1908;439;0.0485;0.0117;0.00142;0.815;350
1910;440;0.0485;0.0117;0.0014;0.818;350
1912;440;0.0485;0.0117;0.00143;0.821;350
1914;441;0.0485;0.0117;0.00144;0.824;350
1916;441;0.0485;0.0117;0.00144;0.827;350
1918;441;0.0485;0.0117;0.00143;0.83;350
1920;442;0.0485;0.0117;0.00142;0.831;350
1922;442;0.0485;0.0117;0.00142;0.834;350
1924;443;0.0485;0.0117;0.00143;0.836;350
1926;443;0.0485;0.0117;0.00143;0.837;350
1928;443;0.0485;0.0117;0.00144;0.841;350
1930;444;0.0485;0.0117;0.00143;0.841;350
1932;444;0.0485;0.0117;0.00144;0.844;350
1934;445;0.0485;0.0117;0.00143;0.845;350
1936;445;0.0485;0.0117;0.00142;0.848;350
1938;445;0.0485;0.0117;0.00143;0.851;350
1940;446;0.0485;0.0117;0.00144;0.856;350
1942;446;0.0485;0.0117;0.00144;0.859;350
1944;446;0.0485;0.0117;0.00143;0.861;350
1946;447;0.0485;0.0117;0.00143;0.862;350
1948;447;0.0485;0.0117;0.00144;0.868;350
1950;448;0.0485;0.0117;0.00144;0.868;350
1952;448;0.0485;0.0117;0.00145;0.874;350
1954;448;0.0485;0.0117;0.00146;0.874;350
1956;448;0.0485;0.0117;0.00145;0.876;350
1958;449;0.0485;0.0117;0.00142;0.877;350
1960;449;0.0485;0.0117;0.00145;0.88;350
1962;449;0.0485;0.0117;0.00145;0.883;350
1964;449;0.0485;0.0117;0.00146;0.885;350
1966;449;0.0485;0.0117;0.00146;0.886;350
1968;449;0.0485;0.0117;0.00145;0.886;350
1970;450;0.0485;0.0117;0.00145;0.886;350
1972;450;0.0485;0.0116;0.00146;0.888;350
1974;450;0.0485;0.0116;0.00147;0.889;350
1976;450;0.0485;0.0116;0.00147;0.892;350
1978;450;0.0485;0.0116;0.00147;0.894;350
1980;450;0.0485;0.0117;0.00145;0.895;350
1982;451;0.0485;0.0116;0.00146;0.898;350
1984;451;0.0485;0.0117;0.00146;0.899;350
1986;451;0.0485;0.0117;0.00146;0.902;350
1988;451;0.0485;0.0116;0.00147;0.902;350
1990;451;0.0485;0.0117;0.00144;0.906;350
1992;452;0.0485;0.0116;0.00147;0.907;350
1994;452;0.0485;0.0117;0.00146;0.909;350
1996;452;0.0485;0.0116;0.00147;0.912;350
1998;452;0.0485;0.0116;0.00148;0.913;350
2000;453;0.0485;0.0116;0.00147;0.917;350
2002;453;0.0485;0.0116;0.00147;0.918;350
2004;453;0.0485;0.0116;0.00147;0.922;350
2006;454;0.0485;0.0116;0.00149;0.924;350
2008;454;0.0485;0.0116;0.00149;0.926;350
2010;454;0.0485;0.0116;0.00149;0.929;350
2012;454;0.0485;0.0116;0.00148;0.93;350
2014;455;0.0485;0.0117;0.00146;0.934;350
2016;455;0.0485;0.0116;0.00147;0.939;350
2018;455;0.0485;0.0116;0.00147;0.944;350
2020;456;0.0485;0.0116;0.00148;0.947;350
2022;456;0.0485;0.0116;0.00148;0.95;350
2024;457;0.0485;0.0116;0.00148;0.953;350
2026;457;0.0485;0.0116;0.00146;0.956;350
2028;458;0.0485;0.0116;0.00148;0.956;350
2030;458;0.0485;0.0116;0.00149;0.961;350
2032;459;0.0485;0.0116;0.00149;0.962;350
2034;459;0.0485;0.0116;0.0015;0.967;350
2036;460;0.0485;0.0116;0.00151;0.968;350
2038;460;0.0485;0.0116;0.0015;0.977;350
2040;460;0.0485;0.0116;0.0015;0.978;350
2042;461;0.0485;0.0116;0.00149;0.983;350
2044;461;0.0485;0.0116;0.00149;0.986;350
2046;462;0.0485;0.0116;0.0015;0.988;350
2048;462;0.0485;0.0116;0.00149;0.992;350
2050;463;0.0485;0.0116;0.00147;0.996;350
2052;463;0.0485;0.0117;0.00146;0.996;350
2054;463;0.0485;0.0117;0.00146;1;350
2056;464;0.0485;0.0116;0.00147;1;350
2058;464;0.0485;0.0116;0.00147;1;350
2060;464;0.0485;0.0116;0.00148;1.01;350
2062;464;0.0485;0.0116;0.00149;1.01;350
2064;464;0.0485;0.0116;0.00149;1.01;350
2066;465;0.0485;0.0116;0.00149;1.01;350
2068;465;0.0485;0.0116;0.0015;1.02;350
2070;465;0.0485;0.0116;0.00147;1.02;350
2072;465;0.0485;0.0116;0.00151;1.02;350
2074;465;0.0485;0.0116;0.00149;1.03;350
2076;466;0.0485;0.0116;0.0015;1.03;350
2078;466;0.0485;0.0116;0.0015;1.03;350
2080;466;0.0485;0.0116;0.00152;1.03;350
2082;467;0.0485;0.0116;0.00152;1.03;350
2084;467;0.0485;0.0116;0.00152;1.04;350
2086;467;0.0485;0.0116;0.00153;1.04;350
2088;468;0.0485;0.0116;0.00153;1.05;350
2090;468;0.0485;0.0116;0.00151;1.05;350
2092;468;0.0485;0.0116;0.00153;1.05;350
2094;469;0.0485;0.0116;0.00152;1.06;350
2096;469;0.0485;0.0116;0.00153;1.06;350
2098;469;0.0485;0.0116;0.00152;1.06;350
2100;470;0.0485;0.0116;0.00153;1.07;350
2102;470;0.0485;0.0116;0.00153;1.07;350
2104;470;0.0485;0.0116;0.00152;1.07;350
2106;470;0.0485;0.0116;0.00151;1.08;350
2108;470;0.0485;0.0116;0.00152;1.08;350
2110;470;0.0485;0.0116;0.00152;1.08;350
2112;471;0.0485;0.0116;0.00152;1.08;350
2114;471;0.0485;0.0116;0.00153;1.08;350
2116;471;0.0485;0.0116;0.00153;1.08;350
2118;471;0.0485;0.0116;0.00152;1.08;350
2120;471;0.0485;0.0116;0.00153;1.09;350
2122;471;0.0485;0.0116;0.00151;1.09;350
2124;471;0.0485;0.0116;0.00153;1.09;350
2126;471;0.0485;0.0116;0.00153;1.09;350
2128;471;0.0485;0.0116;0.00154;1.09;350
2130;471;0.0485;0.0116;0.00154;1.1;350
2132;471;0.0485;0.0116;0.00154;1.1;350
2134;471;0.0485;0.0116;0.00155;1.1;350
2136;471;0.0485;0.0116;0.00155;1.1;350
2138;471;0.0485;0.0116;0.00154;1.1;350
2140;471;0.0485;0.0115;0.00156;1.1;350
2142;470;0.0485;0.0116;0.00156;1.1;350
2144;470;0.0485;0.0116;0.00155;1.1;350
2146;470;0.0485;0.0116;0.00155;1.11;350
2148;470;0.0485;0.0116;0.00155;1.11;350
2150;470;0.0485;0.0116;0.00156;1.11;350
2152;470;0.0485;0.0116;0.00155;1.11;350
2154;470;0.0485;0.0116;0.00154;1.11;350
2156;470;0.0485;0.0116;0.00154;1.11;350
2158;470;0.0485;0.0116;0.00154;1.11;350
2160;470;0.0485;0.0116;0.00154;1.11;350
2162;470;0.0485;0.0116;0.00155;1.12;350
2164;470;0.0485;0.0116;0.00155;1.12;350
2166;470;0.0485;0.0116;0.00156;1.12;350
2168;470;0.0485;0.0115;0.00156;1.12;350
2170;470;0.0485;0.0116;0.00156;1.12;350
2172;470;0.0485;0.0116;0.00155;1.12;350
2174;470;0.0485;0.0116;0.00154;1.13;350
2176;470;0.0485;0.0116;0.00153;1.13;350
2178;470;0.0485;0.0116;0.00153;1.13;350
2180;470;0.0485;0.0116;0.00154;1.13;350
2182;470;0.0485;0.0116;0.00154;1.13;350
2184;470;0.0485;0.0116;0.00153;1.13;350
2186;470;0.0485;0.0116;0.00156;1.14;350
2188;470;0.0485;0.0115;0.00157;1.14;350
2190;470;0.0485;0.0116;0.00155;1.14;350
2192;470;0.0485;0.0116;0.00156;1.14;350
2194;470;0.0485;0.0116;0.00156;1.14;350
2196;470;0.0485;0.0115;0.00156;1.14;350
2198;470;0.0485;0.0115;0.00157;1.14;350
2200;470;0.0485;0.0115;0.00158;1.15;350
2202;470;0.0485;0.0115;0.00157;1.15;350
2204;470;0.0485;0.0116;0.00155;1.15;350
2206;470;0.0485;0.0115;0.00157;1.15;350
2208;470;0.0485;0.0115;0.00157;1.15;350
2210;470;0.0485;0.0115;0.00157;1.15;350
2212;470;0.0485;0.0115;0.00156;1.15;350
2214;469;0.0485;0.0115;0.00156;1.15;350
2216;469;0.0485;0.0116;0.00155;1.15;350
2218;469;0.0485;0.0115;0.00157;1.16;350
2220;469;0.0485;0.0115;0.00157;1.16;350
2222;469;0.0485;0.0116;0.00156;1.16;350
2224;469;0.0485;0.0115;0.00157;1.16;350
2226;469;0.0485;0.0115;0.00156;1.16;350
2228;469;0.0485;0.0115;0.00156;1.16;350
2230;469;0.0485;0.0116;0.00155;1.17;350
2232;469;0.0485;0.0116;0.00154;1.16;350
2234;469;0.0485;0.0116;0.00155;1.17;350
2236;469;0.0485;0.0115;0.00157;1.17;350
2238;469;0.0485;0.0116;0.00155;1.17;350
2240;469;0.0485;0.0116;0.00155;1.17;350
2242;469;0.0485;0.0115;0.00157;1.17;350
2244;469;0.0485;0.0115;0.00159;1.18;350
2246;469;0.0485;0.0115;0.00159;1.17;350
2248;469;0.0485;0.0115;0.00159;1.18;350
2250;469;0.0485;0.0115;0.0016;1.18;350
2252;468;0.0485;0.0115;0.00162;1.18;350
2254;469;0.0485;0.0115;0.00161;1.18;350
2256;469;0.0485;0.0115;0.0016;1.18;350
2258;469;0.0485;0.0115;0.00158;1.19;350
2260;469;0.0485;0.0115;0.00159;1.19;350
2262;469;0.0485;0.0115;0.00161;1.19;350
2264;469;0.0485;0.0115;0.00161;1.19;350
2266;469;0.0485;0.0115;0.00161;1.19;350
2268;469;0.0485;0.0115;0.00159;1.19;350
2270;469;0.0485;0.0115;0.0016;1.19;350
2272;469;0.0485;0.0115;0.00159;1.2;350
2274;469;0.0485;0.0115;0.00159;1.2;350
2276;469;0.0485;0.0115;0.0016;1.2;350
2278;469;0.0485;0.0115;0.00159;1.2;350
2280;469;0.0485;0.0115;0.00161;1.2;350
2282;469;0.0485;0.0115;0.00161;1.2;350
2284;469;0.0485;0.0115;0.0016;1.21;350
2286;469;0.0485;0.0115;0.00161;1.2;350
2288;469;0.0485;0.0115;0.00161;1.21;350
2290;469;0.0485;0.0115;0.00161;1.21;350
2292;469;0.0485;0.0115;0.00161;1.21;350
2294;469;0.0485;0.0115;0.00161;1.21;350
2296;469;0.0485;0.0115;0.00159;1.21;350
2298;469;0.0485;0.0115;0.0016;1.22;350
2300;469;0.0485;0.0115;0.00162;1.22;350
2302;469;0.0485;0.0115;0.00159;1.22;350
2304;468;0.0485;0.0115;0.00161;1.22;350
2306;469;0.0485;0.0115;0.00162;1.22;350
2308;469;0.0485;0.0115;0.0016;1.22;350
2310;469;0.0485;0.0115;0.0016;1.22;350
2312;469;0.0485;0.0115;0.0016;1.23;350
2314;468;0.0485;0.0115;0.00161;1.23;350
2316;468;0.0485;0.0115;0.00162;1.23;350
2318;468;0.0485;0.0115;0.00162;1.23;350
2320;468;0.0485;0.0115;0.00162;1.23;350
2322;468;0.0485;0.0115;0.00161;1.23;350
2324;468;0.0485;0.0115;0.00161;1.24;350
2326;468;0.0485;0.0115;0.00162;1.24;350
2328;468;0.0485;0.0115;0.0016;1.24;350
2330;468;0.0485;0.0115;0.00162;1.24;350
2332;468;0.0485;0.0115;0.00162;1.24;350
2334;468;0.0485;0.0115;0.00163;1.24;350
2336;468;0.0485;0.0115;0.00163;1.24;350
2338;468;0.0485;0.0115;0.00164;1.25;350
2340;468;0.0485;0.0115;0.00164;1.24;350
2342;468;0.0485;0.0115;0.00164;1.25;350
2344;468;0.0485;0.0115;0.00163;1.25;350
2346;468;0.0485;0.0115;0.00163;1.25;350
2348;468;0.0485;0.0115;0.00165;1.25;350
2350;468;0.0485;0.0115;0.00165;1.25;350
2352;467;0.0485;0.0115;0.00163;1.25;350
2354;467;0.0485;0.0115;0.00165;1.25;350
2356;467;0.0485;0.0115;0.00165;1.26;350
2358;467;0.0485;0.0115;0.00163;1.26;350
2360;467;0.0485;0.0115;0.00164;1.26;350
2362;467;0.0485;0.0115;0.00164;1.26;350
2364;467;0.0485;0.0115;0.00164;1.26;350
2366;467;0.0485;0.0115;0.00165;1.26;350
2368;467;0.0485;0.0115;0.00165;1.26;350
2370;467;0.0485;0.0115;0.00165;1.26;350
2372;466;0.0485;0.0115;0.00165;1.26;350
2374;466;0.0485;0.0115;0.00163;1.26;350
2376;466;0.0485;0.0115;0.00164;1.26;350
2378;466;0.0485;0.0115;0.00162;1.26;350
2380;466;0.0485;0.0115;0.00163;1.27;350
2382;466;0.0485;0.0115;0.00162;1.27;350
2384;466;0.0485;0.0115;0.00164;1.27;350
2386;466;0.0485;0.0115;0.00162;1.28;350
2388;466;0.0485;0.0115;0.00162;1.27;350
2390;466;0.0485;0.0115;0.00162;1.28;350
2392;466;0.0485;0.0115;0.00162;1.28;350
2394;466;0.0485;0.0115;0.00162;1.28;350
2396;466;0.0485;0.0115;0.00163;1.28;350
2398;466;0.0485;0.0115;0.00164;1.28;350
2400;466;0.0485;0.0115;0.00163;1.28;350
2402;466;0.0485;0.0115;0.00163;1.28;350
2404;466;0.0485;0.0115;0.00164;1.28;350
2406;466;0.0485;0.0115;0.00164;1.29;350
2408;466;0.0485;0.0115;0.00164;1.29;350
2410;466;0.0485;0.0114;0.00166;1.29;350
2412;466;0.0485;0.0115;0.00165;1.29;350
2414;466;0.0485;0.0115;0.00165;1.29;350
2416;466;0.0485;0.0114;0.00166;1.3;350
2418;466;0.0485;0.0114;0.00167;1.29;350
2420;466;0.0485;0.0114;0.00166;1.3;350
2422;466;0.0485;0.0114;0.00166;1.3;350
2424;466;0.0485;0.0114;0.00165;1.3;350
2426;466;0.0485;0.0114;0.00166;1.3;350
2428;466;0.0485;0.0114;0.00168;1.3;350
2430;466;0.0485;0.0114;0.00166;1.3;350
2432;466;0.0485;0.0114;0.00167;1.3;350
2434;466;0.0485;0.0114;0.00167;1.31;350
2436;466;0.0485;0.0114;0.00169;1.31;350
2438;466;0.0485;0.0114;0.00168;1.31;350
2440;467;0.0485;0.0114;0.00168;1.31;350
2442;467;0.0485;0.0114;0.00168;1.31;350
2444;467;0.0485;0.0114;0.00168;1.32;350
2446;467;0.0485;0.0114;0.00168;1.32;350
2448;467;0.0485;0.0114;0.00167;1.32;350
2450;468;0.0485;0.0114;0.00167;1.32;350
2452;468;0.0485;0.0114;0.00167;1.33;350
2454;468;0.0485;0.0115;0.00165;1.33;350
2456;468;0.0485;0.0114;0.00167;1.34;350
2458;468;0.0485;0.0114;0.00167;1.34;350
2460;469;0.0485;0.0114;0.00167;1.34;350
2462;469;0.0485;0.0114;0.00166;1.34;350
2464;469;0.0485;0.0114;0.00166;1.35;350
2466;470;0.0485;0.0114;0.00168;1.35;350
2468;470;0.0485;0.0114;0.00169;1.35;350
2470;470;0.0485;0.0114;0.00167;1.35;350
2472;470;0.0485;0.0114;0.00166;1.35;350
2474;470;0.0485;0.0114;0.00166;1.36;350
2476;470;0.0485;0.0114;0.00168;1.36;350
2478;471;0.0485;0.0114;0.00168;1.37;350
2480;471;0.0485;0.0114;0.00169;1.36;350
2482;471;0.0485;0.0114;0.00168;1.37;350
2484;471;0.0485;0.0114;0.00167;1.37;350
2486;471;0.0485;0.0114;0.00166;1.37;350
2488;471;0.0485;0.0114;0.00168;1.37;350
2490;471;0.0485;0.0114;0.00169;1.37;350
2492;471;0.0485;0.0114;0.0017;1.38;350
2494;471;0.0485;0.0114;0.00168;1.38;350
2496;471;0.0485;0.0114;0.00169;1.38;350
2498;471;0.0485;0.0114;0.00169;1.38;350
2500;471;0.0485;0.0114;0.00168;1.38;350
2502;471;0.0485;0.0114;0.00169;1.38;350
2504;471;0.0485;0.0114;0.00168;1.39;350
2506;471;0.0485;0.0114;0.00168;1.39;350
2508;471;0.0485;0.0114;0.00168;1.39;350
2510;471;0.0485;0.0114;0.00168;1.39;350
2512;471;0.0485;0.0114;0.00167;1.39;350
2514;471;0.0485;0.0114;0.00166;1.4;350
2516;471;0.0485;0.0114;0.00167;1.4;350
2518;471;0.0485;0.0114;0.00167;1.4;350
2520;471;0.0485;0.0114;0.00166;1.4;350
2522;471;0.0485;0.0114;0.00165;1.41;350
2524;471;0.0485;0.0115;0.00164;1.41;350
2526;471;0.0485;0.0114;0.00166;1.41;350
2528;471;0.0485;0.0114;0.00167;1.41;350
2530;471;0.0485;0.0114;0.00167;1.41;350
2532;471;0.0485;0.0114;0.00166;1.41;350
2534;471;0.0485;0.0115;0.00165;1.41;350
2536;471;0.0485;0.0114;0.00165;1.41;350
2538;471;0.0485;0.0114;0.00167;1.41;350
2540;471;0.0485;0.0114;0.00168;1.41;350
2542;471;0.0485;0.0114;0.00166;1.42;350
2544;471;0.0485;0.0114;0.00165;1.42;350
2546;471;0.0485;0.0114;0.00167;1.42;350
2548;471;0.0485;0.0114;0.00167;1.42;350
2550;471;0.0485;0.0114;0.00167;1.42;350
2552;471;0.0485;0.0114;0.00166;1.43;350
2554;471;0.0485;0.0114;0.00167;1.43;350
2556;471;0.0485;0.0114;0.00167;1.43;350
2558;471;0.0485;0.0114;0.00166;1.43;350
2560;471;0.0485;0.0114;0.00167;1.43;350
2562;471;0.0485;0.0114;0.00166;1.43;350
2564;471;0.0485;0.0114;0.00167;1.43;350
2566;470;0.0485;0.0114;0.00166;1.44;350
2568;470;0.0485;0.0114;0.00167;1.44;350
2570;470;0.0485;0.0114;0.00167;1.43;350
2572;470;0.0485;0.0114;0.00166;1.44;350
2574;470;0.0485;0.0114;0.00165;1.44;350
2576;470;0.0485;0.0114;0.00166;1.44;350
2578;470;0.0485;0.0114;0.00167;1.44;350
2580;470;0.0485;0.0115;0.00165;1.44;350
2582;470;0.0485;0.0115;0.00164;1.44;350
2584;470;0.0485;0.0114;0.00165;1.44;350
2586;470;0.0485;0.0115;0.00164;1.45;350
2588;470;0.0485;0.0115;0.00165;1.45;350
2590;470;0.0485;0.0115;0.00164;1.45;350
2592;470;0.0485;0.0115;0.00165;1.45;350
2594;470;0.0485;0.0114;0.00166;1.45;350
2596;469;0.0485;0.0114;0.00166;1.45;350
2598;469;0.0485;0.0114;0.00166;1.45;350
2600;469;0.0485;0.0115;0.00164;1.46;350
2602;469;0.0485;0.0114;0.00166;1.46;350
2604;469;0.0485;0.0114;0.00166;1.46;350
2606;469;0.0485;0.0114;0.00167;1.46;350
2608;469;0.0485;0.0115;0.00165;1.46;350
2610;469;0.0485;0.0114;0.00167;1.46;350
2612;469;0.0485;0.0114;0.00167;1.46;350
2614;469;0.0485;0.0114;0.00166;1.46;350
2616;469;0.0485;0.0115;0.00165;1.47;350
2618;469;0.0485;0.0114;0.00167;1.47;350
2620;469;0.0485;0.0115;0.00164;1.47;350
2622;469;0.0485;0.0115;0.00165;1.47;350
2624;469;0.0485;0.0115;0.00165;1.47;350
2626;468;0.0485;0.0114;0.00166;1.48;350
2628;468;0.0485;0.0114;0.00166;1.47;350
2630;468;0.0485;0.0115;0.00165;1.48;350
2632;468;0.0485;0.0115;0.00165;1.48;350
2634;468;0.0485;0.0115;0.00165;1.48;350
2636;468;0.0485;0.0115;0.00164;1.48;350
2638;468;0.0485;0.0114;0.00166;1.48;350
2640;468;0.0485;0.0115;0.00165;1.48;350
2642;468;0.0485;0.0114;0.00166;1.48;350
2644;468;0.0485;0.0114;0.00166;1.48;350
2646;468;0.0485;0.0115;0.00165;1.48;350
2648;467;0.0485;0.0115;0.00163;1.48;350
2650;467;0.0485;0.0115;0.00165;1.48;350
2652;467;0.0485;0.0115;0.00164;1.49;350
2654;467;0.0485;0.0115;0.00162;1.49;350
2656;467;0.0485;0.0115;0.00164;1.49;350
2658;467;0.0485;0.0115;0.00163;1.49;350
2660;466;0.0485;0.0115;0.00161;1.49;350
2662;466;0.0485;0.0115;0.00162;1.49;350
2664;466;0.0485;0.0115;0.00162;1.49;350
2666;466;0.0485;0.0115;0.00161;1.49;350
2668;466;0.0485;0.0115;0.00161;1.49;350
2670;466;0.0485;0.0115;0.00161;1.49;350
2672;465;0.0485;0.0115;0.0016;1.49;350
2674;465;0.0485;0.0115;0.00161;1.49;350
2676;465;0.0485;0.0115;0.00162;1.49;350
2678;465;0.0485;0.0115;0.00162;1.49;350
2680;465;0.0485;0.0115;0.0016;1.49;350
2682;464;0.0485;0.0115;0.0016;1.5;350
2684;464;0.0485;0.0115;0.00162;1.5;350
2686;464;0.0485;0.0115;0.00162;1.5;350
2688;464;0.0485;0.0115;0.00162;1.5;350
2690;464;0.0485;0.0115;0.00162;1.5;350
2692;463;0.0485;0.0115;0.0016;1.5;350
2694;463;0.0485;0.0115;0.00161;1.5;350
2696;463;0.0485;0.0115;0.00161;1.5;350
2698;463;0.0485;0.0115;0.00161;1.5;350
2700;463;0.0485;0.0115;0.0016;1.5;350
2702;463;0.0485;0.0115;0.00161;1.5;350
2704;462;0.0485;0.0115;0.00159;1.5;350
2706;462;0.0485;0.0115;0.00161;1.5;350
2708;461;0.0485;0.0115;0.0016;1.5;350
2710;460;0.0485;0.0115;0.00158;1.5;350
2712;459;0.0485;0.0115;0.0016;1.49;350
2714;458;0.0485;0.0115;0.00158;1.49;350
2716;457;0.0485;0.0115;0.0016;1.48;350
2718;456;0.0485;0.0115;0.0016;1.48;350
2720;455;0.0485;0.0115;0.00158;1.48;350
2722;454;0.0485;0.0115;0.00161;1.47;350
2724;454;0.0485;0.0115;0.0016;1.47;350
2726;453;0.0485;0.0115;0.0016;1.47;350
2728;452;0.0485;0.0115;0.00161;1.47;350
2730;451;0.0485;0.0115;0.00161;1.47;350
2732;451;0.0485;0.0115;0.0016;1.47;350
2734;451;0.0485;0.0115;0.0016;1.46;350
2736;450;0.0485;0.0115;0.00159;1.46;350
2738;450;0.0485;0.0115;0.0016;1.46;350
2740;449;0.0485;0.0115;0.0016;1.46;350
2742;449;0.0485;0.0115;0.00158;1.46;350
2744;448;0.0485;0.0115;0.00159;1.46;350
2746;448;0.0485;0.0115;0.00158;1.46;350
2748;448;0.0485;0.0115;0.00158;1.46;350
2750;447;0.0485;0.0115;0.00159;1.45;350
2752;447;0.0485;0.0115;0.00157;1.46;350
2754;447;0.0485;0.0115;0.0016;1.45;350
2756;446;0.0485;0.0115;0.00157;1.45;350
2758;446;0.0485;0.0115;0.00158;1.45;350
2760;446;0.0485;0.0115;0.00159;1.45;350
2762;445;0.0485;0.0115;0.00158;1.45;350
2764;445;0.0485;0.0115;0.00158;1.45;350
2766;445;0.0485;0.0115;0.00157;1.45;350
2768;444;0.0485;0.0115;0.00158;1.45;350
2770;444;0.0485;0.0115;0.00158;1.45;350
2772;444;0.0485;0.0115;0.00159;1.45;350
2774;444;0.0485;0.0115;0.00158;1.45;350
2776;444;0.0485;0.0115;0.00159;1.45;350
2778;444;0.0485;0.0115;0.0016;1.45;350
2780;444;0.0485;0.0115;0.00159;1.45;350
2782;443;0.0485;0.0115;0.00159;1.45;350
2784;443;0.0485;0.0115;0.00158;1.45;350
2786;443;0.0485;0.0115;0.00158;1.45;350
2788;443;0.0485;0.0115;0.0016;1.45;350
2790;443;0.0485;0.0115;0.0016;1.45;350
2792;443;0.0485;0.0115;0.0016;1.45;350
2794;443;0.0485;0.0115;0.00159;1.45;350
2796;443;0.0485;0.0115;0.00159;1.45;350
2798;443;0.0485;0.0115;0.0016;1.45;350
2800;443;0.0485;0.0115;0.0016;1.45;350
2802;442;0.0485;0.0115;0.00158;1.45;350
2804;442;0.0485;0.0115;0.00159;1.45;350
2806;442;0.0485;0.0115;0.00158;1.46;350
2808;442;0.0485;0.0115;0.0016;1.45;350
2810;442;0.0485;0.0115;0.00159;1.46;350
2812;442;0.0485;0.0115;0.00159;1.46;350
2814;442;0.0485;0.0115;0.00159;1.45;350
2816;442;0.0485;0.0115;0.00158;1.45;350
2818;442;0.0485;0.0115;0.0016;1.46;350
2820;442;0.0485;0.0115;0.00157;1.45;350
2822;442;0.0485;0.0115;0.00158;1.46;350
2824;442;0.0485;0.0115;0.00158;1.45;350
2826;441;0.0485;0.0116;0.00156;1.45;350
2828;441;0.0485;0.0115;0.00156;1.45;350
2830;441;0.0485;0.0115;0.00156;1.45;350
2832;441;0.0485;0.0115;0.00158;1.46;350
2834;441;0.0485;0.0116;0.00155;1.45;350
2836;441;0.0485;0.0115;0.00157;1.46;350
2838;441;0.0485;0.0115;0.00159;1.45;350
2840;441;0.0485;0.0115;0.00158;1.46;350
2842;440;0.0485;0.0115;0.0016;1.46;350
2844;440;0.0485;0.0115;0.00159;1.46;350
2846;440;0.0485;0.0115;0.0016;1.46;350
2848;440;0.0485;0.0115;0.00161;1.46;350
2850;440;0.0485;0.0115;0.00159;1.46;350
2852;440;0.0485;0.0115;0.00161;1.46;350
2854;439;0.0485;0.0115;0.0016;1.46;350
2856;440;0.0485;0.0115;0.00158;1.46;350
2858;439;0.0485;0.0115;0.0016;1.46;350
2860;439;0.0485;0.0115;0.0016;1.46;350
2862;439;0.0485;0.0115;0.00159;1.46;350
2864;439;0.0485;0.0115;0.00158;1.46;350
2866;439;0.0485;0.0115;0.00158;1.46;350
2868;439;0.0485;0.0115;0.00158;1.46;350
2870;439;0.0485;0.0115;0.00158;1.46;350
2872;439;0.0485;0.0115;0.00158;1.46;350
2874;439;0.0485;0.0115;0.00158;1.46;350
2876;439;0.0485;0.0115;0.00158;1.46;350
2878;439;0.0485;0.0115;0.00158;1.46;350
2880;439;0.0485;0.0115;0.00158;1.46;350
2882;439;0.0485;0.0115;0.00158;1.46;350
2884;439;0.0485;0.0115;0.00158;1.46;350
2886;439;0.0485;0.0115;0.00158;1.46;350
2888;439;0.0485;0.0115;0.00158;1.46;350
2890;438;0.0485;0.0115;0.00158;1.46;350
2892;438;0.0485;0.0115;0.00158;1.46;350
2894;438;0.0485;0.0115;0.00158;1.46;350
2896;438;0.0485;0.0115;0.00158;1.47;350
2898;438;0.0485;0.0115;0.00158;1.46;350
2900;438;0.0485;0.0115;0.00158;1.47;350
2902;438;0.0485;0.0115;0.00158;1.47;350
2904;438;0.0485;0.0115;0.00158;1.47;350
2906;438;0.0485;0.0115;0.00158;1.47;350
2908;438;0.0485;0.0115;0.00158;1.47;350
2910;438;0.0485;0.0115;0.00158;1.47;350
2912;438;0.0485;0.0115;0.00158;1.47;350
2914;438;0.0485;0.0115;0.00158;1.47;350
2916;438;0.0485;0.0115;0.00158;1.47;350
2918;438;0.0485;0.0115;0.00158;1.47;350
2920;438;0.0485;0.0115;0.00158;1.47;350
2922;437;0.0485;0.0115;0.00158;1.47;350
2924;437;0.0485;0.0115;0.00158;1.47;350
2926;437;0.0485;0.0115;0.00158;1.47;350
2928;437;0.0485;0.0115;0.00158;1.47;350
2930;437;0.0485;0.0115;0.00158;1.47;350
2932;437;0.0485;0.0115;0.00158;1.47;350
2934;437;0.0485;0.0115;0.00158;1.47;350
2936;437;0.0485;0.0115;0.00158;1.47;350
2938;437;0.0485;0.0115;0.00158;1.47;350
2940;437;0.0485;0.0115;0.00158;1.47;350
2942;437;0.0485;0.0115;0.00158;1.47;350
2944;437;0.0485;0.0115;0.00158;1.47;350
2946;437;0.0485;0.0115;0.00158;1.47;350
2948;437;0.0485;0.0115;0.00158;1.47;350
2950;437;0.0485;0.0115;0.00158;1.47;350
2952;437;0.0485;0.0115;0.00158;1.47;350
2954;437;0.0485;0.0115;0.00158;1.47;350
2956;437;0.0485;0.0115;0.00158;1.47;350
2958;437;0.0485;0.0115;0.00158;1.47;350
2960;436;0.0485;0.0115;0.00158;1.47;350
2962;436;0.0485;0.0115;0.00158;1.47;350
2964;436;0.0485;0.0115;0.00158;1.47;350
2966;436;0.0485;0.0115;0.00158;1.47;350
2968;436;0.0485;0.0115;0.00158;1.48;350
2970;436;0.0485;0.0115;0.00158;1.48;350
2972;436;0.0485;0.0115;0.00158;1.48;350
2974;436;0.0485;0.0115;0.00158;1.48;350
2976;436;0.0485;0.0115;0.00158;1.47;350
2978;436;0.0485;0.0115;0.00158;1.48;350
2980;436;0.0485;0.0115;0.00158;1.47;350
2982;436;0.0485;0.0115;0.00158;1.47;350
2984;436;0.0485;0.0115;0.00158;1.48;350
2986;435;0.0485;0.0115;0.00158;1.48;350
2988;436;0.0485;0.0115;0.00158;1.48;350
2990;436;0.0485;0.0115;0.00158;1.47;350
2992;436;0.0485;0.0115;0.00158;1.47;350
2994;435;0.0485;0.0115;0.00158;1.48;350
2996;435;0.0485;0.0115;0.00158;1.48;350
2998;435;0.0485;0.0115;0.00158;1.48;350
3000;435;0.0485;0.0115;0.00158;1.48;350
3002;435;0.0485;0.0115;0.00158;1.48;350
3004;435;0.0485;0.0115;0.00158;1.48;350
3006;435;0.0485;0.0115;0.00158;1.48;350
3008;435;0.0485;0.0115;0.00158;1.48;350
3010;435;0.0485;0.0115;0.00158;1.48;350
3012;435;0.0485;0.0115;0.00158;1.48;350
3014;435;0.0485;0.0115;0.00158;1.48;350
3016;435;0.0485;0.0115;0.00158;1.48;350
3018;434;0.0485;0.0115;0.00158;1.48;350
3020;434;0.0485;0.0115;0.00158;1.48;350
3022;434;0.0485;0.0115;0.00158;1.48;350
3024;434;0.0485;0.0115;0.00158;1.48;350
3026;434;0.0485;0.0115;0.00158;1.48;350
3028;434;0.0485;0.0115;0.00158;1.48;350
3030;434;0.0485;0.0115;0.00158;1.48;350
3032;434;0.0485;0.0115;0.00158;1.48;350
3034;434;0.0485;0.0115;0.00158;1.48;350
3036;433;0.0485;0.0115;0.00158;1.48;350
3038;433;0.0485;0.0115;0.00158;1.48;350
3040;433;0.0485;0.0115;0.00158;1.48;350
3042;433;0.0485;0.0115;0.00158;1.48;350
3044;433;0.0485;0.0115;0.00158;1.48;350
3046;433;0.0485;0.0115;0.00158;1.48;350
3048;433;0.0485;0.0115;0.00158;1.48;350
3050;433;0.0485;0.0115;0.00158;1.47;350
3052;433;0.0485;0.0115;0.00158;1.48;350
3054;432;0.0485;0.0115;0.00158;1.48;350
3056;432;0.0485;0.0115;0.00158;1.48;350
3058;432;0.0485;0.0115;0.00158;1.48;350
3060;432;0.0485;0.0115;0.00158;1.48;350
3062;432;0.0485;0.0115;0.00158;1.48;350
3064;432;0.0485;0.0115;0.00158;1.48;350
3066;432;0.0485;0.0115;0.00158;1.48;350
3068;432;0.0485;0.0115;0.00158;1.48;350
3070;432;0.0485;0.0115;0.00158;1.48;350
3072;432;0.0485;0.0115;0.00158;1.48;350
3074;431;0.0485;0.0115;0.00158;1.48;350
3076;432;0.0485;0.0115;0.00158;1.48;350
3078;432;0.0485;0.0115;0.00158;1.47;350
3080;432;0.0485;0.0115;0.00158;1.47;350
3082;432;0.0485;0.0115;0.00158;1.48;350
3084;432;0.0485;0.0115;0.00158;1.47;350
3086;432;0.0485;0.0115;0.00158;1.47;350
3088;432;0.0485;0.0115;0.00158;1.47;350
3090;432;0.0485;0.0115;0.00158;1.47;350
3092;432;0.0485;0.0115;0.00158;1.47;350
3094;432;0.0485;0.0115;0.00158;1.47;350
3096;432;0.0485;0.0115;0.00158;1.47;350
3098;431;0.0485;0.0115;0.00158;1.48;350
3100;431;0.0485;0.0115;0.00158;1.48;350
3102;431;0.0485;0.0115;0.00158;1.48;350
3104;431;0.0485;0.0115;0.00158;1.47;350
3106;431;0.0485;0.0115;0.00158;1.48;350
3108;431;0.0485;0.0115;0.00158;1.47;350
3110;431;0.0485;0.0115;0.00158;1.47;350
3112;431;0.0485;0.0115;0.00158;1.47;350
3114;431;0.0485;0.0115;0.00158;1.47;350
3116;430;0.0485;0.0115;0.00158;1.48;350
3118;430;0.0485;0.0115;0.00158;1.47;350
3120;430;0.0485;0.0115;0.00158;1.48;350
3122;430;0.0485;0.0115;0.00158;1.47;350
3124;430;0.0485;0.0115;0.00158;1.47;350
3126;430;0.0485;0.0115;0.00158;1.47;350
3128;430;0.0485;0.0115;0.00158;1.47;350
3130;430;0.0485;0.0115;0.00158;1.48;350
3132;430;0.0485;0.0115;0.00158;1.47;350
3134;429;0.0485;0.0115;0.00158;1.47;350
3136;429;0.0485;0.0115;0.00158;1.47;350
3138;429;0.0485;0.0115;0.00158;1.47;350
3140;429;0.0485;0.0115;0.00158;1.47;350
3142;429;0.0485;0.0115;0.00158;1.48;350
3144;429;0.0485;0.0115;0.00158;1.47;350
3146;429;0.0485;0.0115;0.00158;1.47;350
3148;429;0.0485;0.0115;0.00158;1.47;350
3150;429;0.0485;0.0115;0.00158;1.47;350
3152;429;0.0485;0.0115;0.00158;1.47;350
3154;429;0.0485;0.0115;0.00158;1.47;350
3156;429;0.0485;0.0115;0.00158;1.47;350
3158;428;0.0485;0.0115;0.00158;1.47;350
3160;428;0.0485;0.0115;0.00158;1.47;350
3162;428;0.0485;0.0115;0.00158;1.47;350
3164;428;0.0485;0.0115;0.00158;1.47;350
3166;428;0.0485;0.0115;0.00158;1.47;350
3168;428;0.0485;0.0115;0.00158;1.47;350
3170;428;0.0485;0.0115;0.00158;1.47;350
3172;428;0.0485;0.0115;0.00158;1.47;350
3174;428;0.0485;0.0115;0.00158;1.47;350
3176;427;0.0485;0.0115;0.00158;1.47;350
3178;427;0.0485;0.0115;0.00158;1.47;350
3180;427;0.0485;0.0115;0.00158;1.47;350
3182;427;0.0485;0.0115;0.00158;1.47;350
3184;427;0.0485;0.0115;0.00158;1.47;350
3186;427;0.0485;0.0115;0.00158;1.47;350
3188;427;0.0485;0.0115;0.00158;1.46;350
3190;427;0.0485;0.0115;0.00158;1.47;350
3192;427;0.0485;0.0115;0.00158;1.46;350
3194;427;0.0485;0.0115;0.00158;1.46;350
3196;427;0.0485;0.0115;0.00158;1.47;350
3198;427;0.0485;0.0115;0.00158;1.46;350
3200;426;0.0485;0.0115;0.00158;1.47;350
3202;426;0.0485;0.0115;0.00158;1.46;350
3204;426;0.0485;0.0115;0.00158;1.47;350
3206;427;0.0485;0.0115;0.00158;1.47;350
3208;427;0.0485;0.0115;0.00158;1.47;350
3210;427;0.0485;0.0115;0.00158;1.47;350
3212;427;0.0485;0.0115;0.00158;1.46;350
3214;427;0.0485;0.0115;0.00158;1.46;350
3216;427;0.0485;0.0115;0.00158;1.46;350
3218;427;0.0485;0.0115;0.00158;1.46;350
3220;427;0.0485;0.0115;0.00158;1.46;350
3222;427;0.0485;0.0115;0.00158;1.46;350
3224;427;0.0485;0.0115;0.00158;1.46;350
3226;427;0.0485;0.0115;0.00158;1.46;350
3228;426;0.0485;0.0115;0.00158;1.46;350
3230;426;0.0485;0.0115;0.00158;1.46;350
3232;426;0.0485;0.0115;0.00158;1.46;350
3234;426;0.0485;0.0115;0.00158;1.47;350
3236;426;0.0485;0.0115;0.00158;1.46;350
3238;426;0.0485;0.0115;0.00158;1.46;350
3240;426;0.0485;0.0115;0.00158;1.46;350
3242;426;0.0485;0.0115;0.00158;1.46;350
3244;426;0.0485;0.0115;0.00158;1.46;350
3246;426;0.0485;0.0115;0.00158;1.46;350
3248;426;0.0485;0.0115;0.00158;1.46;350
3250;425;0.0485;0.0115;0.00158;1.46;350
3252;425;0.0485;0.0115;0.00158;1.46;350
3254;425;0.0485;0.0115;0.00158;1.46;350
3256;425;0.0485;0.0115;0.00158;1.46;350
3258;425;0.0485;0.0115;0.00158;1.46;350
3260;425;0.0485;0.0115;0.00158;1.46;350
3262;425;0.0485;0.0115;0.00158;1.46;350
3264;425;0.0485;0.0115;0.00158;1.46;350
3266;425;0.0485;0.0115;0.00158;1.46;350
3268;425;0.0485;0.0115;0.00158;1.46;350
3270;425;0.0485;0.0115;0.00158;1.46;350
3272;425;0.0485;0.0115;0.00158;1.46;350
3274;425;0.0485;0.0115;0.00158;1.46;350
3276;425;0.0485;0.0115;0.00158;1.46;350
3278;424;0.0485;0.0115;0.00158;1.46;350
3280;424;0.0485;0.0115;0.00158;1.46;350
3282;424;0.0485;0.0115;0.00158;1.46;350
3284;424;0.0485;0.0115;0.00158;1.46;350
3286;424;0.0485;0.0115;0.00158;1.46;350
3288;424;0.0485;0.0115;0.00158;1.46;350
3290;424;0.0485;0.0115;0.00158;1.46;350
3292;424;0.0485;0.0115;0.00158;1.46;350
3294;424;0.0485;0.0115;0.00158;1.46;350
3296;424;0.0485;0.0115;0.00158;1.46;350
3298;424;0.0485;0.0115;0.00158;1.46;350
3300;424;0.0485;0.0115;0.00158;1.46;350
3302;424;0.0485;0.0115;0.00158;1.45;350
3304;424;0.0485;0.0115;0.00158;1.46;350
3306;424;0.0485;0.0115;0.00158;1.45;350
3308;424;0.0485;0.0115;0.00158;1.45;350
3310;424;0.0485;0.0115;0.00158;1.46;350
3312;423;0.0485;0.0115;0.00158;1.46;350
3314;423;0.0485;0.0115;0.00158;1.45;350
3316;423;0.0485;0.0115;0.00158;1.45;350
3318;423;0.0485;0.0115;0.00158;1.45;350
3320;423;0.0485;0.0115;0.00158;1.46;350
3322;423;0.0485;0.0115;0.00158;1.45;350
3324;423;0.0485;0.0115;0.00158;1.45;350
3326;423;0.0485;0.0115;0.00158;1.45;350
3328;423;0.0485;0.0115;0.00158;1.46;350
3330;423;0.0485;0.0115;0.00158;1.45;350
3332;423;0.0485;0.0115;0.00158;1.45;350
3334;423;0.0485;0.0115;0.00158;1.45;350
3336;423;0.0485;0.0115;0.00158;1.45;350
3338;424;0.0485;0.0115;0.00158;1.45;350
3340;424;0.0485;0.0115;0.00158;1.45;350
3342;424;0.0485;0.0115;0.00158;1.45;350
3344;424;0.0485;0.0115;0.00158;1.45;350
3346;424;0.0485;0.0115;0.00158;1.45;350
3348;424;0.0485;0.0115;0.00158;1.45;350
3350;424;0.0485;0.0115;0.00158;1.45;350
3352;423;0.0485;0.0115;0.00158;1.45;350
3354;423;0.0485;0.0115;0.00158;1.45;350
3356;423;0.0485;0.0115;0.00158;1.45;350
3358;423;0.0485;0.0115;0.00158;1.45;350
3360;423;0.0485;0.0115;0.00158;1.45;350
3362;423;0.0485;0.0115;0.00158;1.45;350
3364;423;0.0485;0.0115;0.00158;1.45;350
3366;423;0.0485;0.0115;0.00158;1.45;350
3368;423;0.0485;0.0115;0.00158;1.45;350
3370;423;0.0485;0.0115;0.00158;1.45;350
3372;423;0.0485;0.0115;0.00158;1.45;350
3374;423;0.0485;0.0115;0.00158;1.45;350
3376;423;0.0485;0.0115;0.00158;1.45;350
3378;423;0.0485;0.0115;0.00158;1.45;350
3380;423;0.0485;0.0115;0.00158;1.45;350
3382;423;0.0485;0.0115;0.00158;1.45;350
3384;423;0.0485;0.0115;0.00158;1.45;350
3386;423;0.0485;0.0115;0.00158;1.45;350
3388;423;0.0485;0.0115;0.00158;1.45;350
3390;423;0.0485;0.0115;0.00158;1.45;350
3392;423;0.0485;0.0115;0.00158;1.45;350
3394;423;0.0485;0.0115;0.00158;1.45;350
3396;423;0.0485;0.0115;0.00158;1.45;350
3398;423;0.0485;0.0115;0.00158;1.45;350
3400;423;0.0485;0.0115;0.00158;1.45;350
3402;423;0.0485;0.0115;0.00158;1.45;350
3404;423;0.0485;0.0115;0.00158;1.45;350
3406;423;0.0485;0.0115;0.00158;1.45;350
3408;423;0.0485;0.0115;0.00158;1.45;350
3410;423;0.0485;0.0115;0.00158;1.45;350
3412;423;0.0485;0.0115;0.00158;1.45;350
3414;423;0.0485;0.0115;0.00158;1.45;350
3416;423;0.0485;0.0115;0.00158;1.45;350
3418;423;0.0485;0.0115;0.00158;1.44;350
3420;423;0.0485;0.0115;0.00158;1.45;350
3422;423;0.0485;0.0115;0.00158;1.45;350
3424;422;0.0485;0.0115;0.00158;1.45;350
3426;422;0.0485;0.0115;0.00158;1.45;350
3428;422;0.0485;0.0115;0.00158;1.44;350
3430;422;0.0485;0.0115;0.00158;1.45;350
3432;422;0.0485;0.0115;0.00158;1.45;350
3434;422;0.0485;0.0115;0.00158;1.45;350
3436;422;0.0485;0.0115;0.00158;1.45;350
3438;422;0.0485;0.0115;0.00158;1.44;350
3440;422;0.0485;0.0115;0.00158;1.44;350
3442;422;0.0485;0.0115;0.00158;1.44;350
3444;422;0.0485;0.0115;0.00158;1.45;350
3446;422;0.0485;0.0115;0.00158;1.45;350
3448;422;0.0485;0.0115;0.00158;1.44;350
3450;422;0.0485;0.0115;0.00158;1.44;350
3452;421;0.0485;0.0115;0.00158;1.44;350
3454;421;0.0485;0.0115;0.00158;1.44;350
3456;421;0.0485;0.0115;0.00158;1.44;350
3458;421;0.0485;0.0115;0.00158;1.44;350
3460;421;0.0485;0.0115;0.00158;1.44;350
3462;421;0.0485;0.0115;0.00158;1.44;350
3464;421;0.0485;0.0115;0.00158;1.44;350
3466;421;0.0485;0.0115;0.00158;1.44;350
3468;422;0.0485;0.0115;0.00158;1.44;350
3470;422;0.0485;0.0115;0.00158;1.44;350
3472;422;0.0485;0.0115;0.00158;1.44;350
3474;422;0.0485;0.0115;0.00158;1.44;350
3476;422;0.0485;0.0115;0.00158;1.44;350
3478;422;0.0485;0.0115;0.00158;1.43;350
3480;422;0.0485;0.0115;0.00158;1.44;350
3482;421;0.0485;0.0115;0.00158;1.44;350
3484;421;0.0485;0.0115;0.00158;1.44;350
3486;421;0.0485;0.0115;0.00158;1.43;350
3488;421;0.0485;0.0115;0.00158;1.43;350
3490;421;0.0485;0.0115;0.00158;1.43;350
3492;421;0.0485;0.0115;0.00158;1.43;350
3494;421;0.0485;0.0115;0.00158;1.43;350
3496;421;0.0485;0.0115;0.00158;1.43;350
3498;421;0.0485;0.0115;0.00158;1.43;350
3500;421;0.0485;0.0115;0.00158;1.43;350
3502;420;0.0485;0.0115;0.00158;1.43;350
3504;421;0.0485;0.0115;0.00158;1.43;350
3506;420;0.0485;0.0115;0.00158;1.43;350
3508;420;0.0485;0.0115;0.00158;1.43;350
3510;420;0.0485;0.0115;0.00158;1.43;350
3512;420;0.0485;0.0115;0.00158;1.43;350
3514;420;0.0485;0.0115;0.00158;1.43;350
3516;420;0.0485;0.0115;0.00158;1.43;350
3518;420;0.0485;0.0115;0.00158;1.43;350
3520;420;0.0485;0.0115;0.00158;1.43;350
3522;420;0.0485;0.0115;0.00158;1.43;350
3524;420;0.0485;0.0115;0.00158;1.43;350
3526;420;0.0485;0.0115;0.00158;1.43;350
3528;420;0.0485;0.0115;0.00158;1.43;350
3530;419;0.0485;0.0115;0.00158;1.43;350
3532;419;0.0485;0.0115;0.00158;1.43;350
3534;419;0.0485;0.0115;0.00158;1.43;350
3536;419;0.0485;0.0115;0.00158;1.42;350
3538;419;0.0485;0.0115;0.00158;1.43;350
3540;419;0.0485;0.0115;0.00158;1.42;350
3542;419;0.0485;0.0115;0.00158;1.42;350
3544;419;0.0485;0.0115;0.00158;1.42;350
3546;419;0.0485;0.0115;0.00158;1.42;350
3548;419;0.0485;0.0115;0.00158;1.42;350
3550;419;0.0485;0.0115;0.00158;1.42;350
3552;419;0.0485;0.0115;0.00158;1.42;350
3554;419;0.0485;0.0115;0.00158;1.42;350
3556;419;0.0485;0.0115;0.00158;1.42;350
3558;419;0.0485;0.0115;0.00158;1.42;350
3560;419;0.0485;0.0115;0.00158;1.42;350
3562;419;0.0485;0.0115;0.00158;1.42;350
3564;419;0.0485;0.0115;0.00158;1.42;350
3566;419;0.0485;0.0115;0.00158;1.42;350
3568;419;0.0485;0.0115;0.00158;1.42;350
3570;419;0.0485;0.0115;0.00158;1.42;350
3572;419;0.0485;0.0115;0.00158;1.42;350
3574;419;0.0485;0.0115;0.00158;1.42;350
3576;419;0.0485;0.0115;0.00158;1.42;350
3578;419;0.0485;0.0115;0.00158;1.42;350
3580;419;0.0485;0.0115;0.00158;1.42;350
3582;419;0.0485;0.0115;0.00158;1.42;350
3584;419;0.0485;0.0115;0.00158;1.42;350
3586;419;0.0485;0.0115;0.00158;1.42;350
3588;418;0.0485;0.0115;0.00158;1.41;350
3590;418;0.0485;0.0115;0.00158;1.42;350
3592;418;0.0485;0.0115;0.00158;1.42;350
3594;418;0.0485;0.0115;0.00158;1.41;350
3596;418;0.0485;0.0115;0.00158;1.42;350
3598;419;0.0485;0.0115;0.00158;1.41;350
3600;419;0.0485;0.0115;0.00158;1.41;350
3602;419;0.0485;0.0115;0.00158;1.42;350
3604;419;0.0485;0.0115;0.00158;1.41;350
3606;419;0.0485;0.0115;0.00158;1.42;350
3608;419;0.0485;0.0115;0.00158;1.41;350
3610;419;0.0485;0.0115;0.00158;1.41;350
3612;419;0.0485;0.0115;0.00158;1.41;350
3614;419;0.0485;0.0115;0.00158;1.41;350
3616;419;0.0485;0.0115;0.00158;1.41;350
3618;419;0.0485;0.0115;0.00158;1.41;350
3620;419;0.0485;0.0115;0.00158;1.41;350
3622;419;0.0485;0.0115;0.00158;1.41;350
3624;419;0.0485;0.0115;0.00158;1.41;350
3626;418;0.0485;0.0115;0.00158;1.41;350
3628;419;0.0485;0.0115;0.00158;1.41;350
3630;419;0.0485;0.0115;0.00158;1.41;350
3632;419;0.0485;0.0115;0.00158;1.41;350
3634;419;0.0485;0.0115;0.00158;1.41;350
3636;419;0.0485;0.0115;0.00158;1.41;350
3638;419;0.0485;0.0115;0.00158;1.41;350
3640;419;0.0485;0.0115;0.00158;1.4;350
3642;419;0.0485;0.0115;0.00158;1.41;350
3644;418;0.0485;0.0115;0.00158;1.4;350
3646;418;0.0485;0.0115;0.00158;1.4;350
3648;418;0.0485;0.0115;0.00158;1.4;350
3650;418;0.0485;0.0115;0.00158;1.4;350
3652;418;0.0485;0.0115;0.00158;1.4;350
3654;418;0.0485;0.0115;0.00158;1.4;350
3656;418;0.0485;0.0115;0.00158;1.4;350
3658;418;0.0485;0.0115;0.00158;1.4;350
3660;418;0.0485;0.0115;0.00158;1.4;350
3662;418;0.0485;0.0115;0.00158;1.4;350
3664;418;0.0485;0.0115;0.00158;1.4;350
3666;418;0.0485;0.0115;0.00158;1.41;350
3668;418;0.0485;0.0115;0.00158;1.4;350
3670;418;0.0485;0.0115;0.00158;1.4;350
3672;418;0.0485;0.0115;0.00158;1.4;350
3674;418;0.0485;0.0115;0.00158;1.4;350
3676;418;0.0485;0.0115;0.00158;1.4;350
3678;418;0.0485;0.0115;0.00158;1.4;350
3680;418;0.0485;0.0115;0.00158;1.4;350
3682;418;0.0485;0.0115;0.00158;1.4;350
3684;418;0.0485;0.0115;0.00158;1.4;350
3686;418;0.0485;0.0115;0.00158;1.4;350
3688;418;0.0485;0.0115;0.00158;1.4;350
3690;418;0.0485;0.0115;0.00158;1.4;350
3692;418;0.0485;0.0115;0.00158;1.4;350
3694;418;0.0485;0.0115;0.00158;1.4;350
3696;418;0.0485;0.0115;0.00158;1.4;350
3698;417;0.0485;0.0115;0.00158;1.4;350
3700;418;0.0485;0.0115;0.00158;1.4;350
3702;417;0.0485;0.0115;0.00158;1.4;350
3704;417;0.0485;0.0115;0.00158;1.4;350
3706;418;0.0485;0.0115;0.00158;1.4;350
3708;418;0.0485;0.0115;0.00158;1.39;350
3710;418;0.0485;0.0115;0.00158;1.4;350
3712;418;0.0485;0.0115;0.00158;1.39;350
3714;418;0.0485;0.0115;0.00158;1.4;350
3716;418;0.0485;0.0115;0.00158;1.39;350
3718;417;0.0485;0.0115;0.00158;1.39;350
3720;417;0.0485;0.0115;0.00158;1.39;350
3722;417;0.0485;0.0115;0.00158;1.39;350
3724;417;0.0485;0.0115;0.00158;1.39;350
3726;417;0.0485;0.0115;0.00158;1.39;350
3728;417;0.0485;0.0115;0.00158;1.39;350
3730;418;0.0485;0.0115;0.00158;1.39;350
3732;418;0.0485;0.0115;0.00158;1.39;350
3734;418;0.0485;0.0115;0.00158;1.39;350
3736;418;0.0485;0.0115;0.00158;1.39;350
3738;418;0.0485;0.0115;0.00158;1.39;350
3740;418;0.0485;0.0115;0.00158;1.39;350
3742;418;0.0485;0.0115;0.00158;1.39;350
3744;418;0.0485;0.0115;0.00158;1.39;350
3746;418;0.0485;0.0115;0.00158;1.39;350
3748;418;0.0485;0.0115;0.00158;1.39;350
3750;418;0.0485;0.0115;0.00158;1.39;350
3752;418;0.0485;0.0115;0.00158;1.39;350
3754;418;0.0485;0.0115;0.00158;1.39;350
3756;418;0.0485;0.0115;0.00158;1.39;350
3758;418;0.0485;0.0115;0.00158;1.39;350
3760;418;0.0485;0.0115;0.00158;1.39;350
3762;418;0.0485;0.0115;0.00158;1.39;350
3764;418;0.0485;0.0115;0.00158;1.39;350
3766;418;0.0485;0.0115;0.00158;1.38;350
3768;418;0.0485;0.0115;0.00158;1.38;350
3770;418;0.0485;0.0115;0.00158;1.39;350
3772;418;0.0485;0.0115;0.00158;1.38;350
3774;418;0.0485;0.0115;0.00158;1.39;350
3776;418;0.0485;0.0115;0.00158;1.38;350
3778;418;0.0485;0.0115;0.00158;1.39;350
3780;418;0.0485;0.0115;0.00158;1.38;350
3782;418;0.0485;0.0115;0.00158;1.39;350
3784;418;0.0485;0.0115;0.00158;1.38;350
3786;418;0.0485;0.0115;0.00158;1.38;350
3788;418;0.0485;0.0115;0.00158;1.38;350
3790;418;0.0485;0.0115;0.00158;1.38;350
3792;418;0.0485;0.0115;0.00158;1.38;350
3794;418;0.0485;0.0115;0.00158;1.38;350
3796;418;0.0485;0.0115;0.00158;1.38;350
3798;417;0.0485;0.0115;0.00158;1.38;350
3800;417;0.0485;0.0115;0.00158;1.38;350
3802;417;0.0485;0.0115;0.00158;1.38;350
3804;417;0.0485;0.0115;0.00158;1.38;350
3806;418;0.0485;0.0115;0.00158;1.38;350
3808;417;0.0485;0.0115;0.00158;1.38;350
3810;418;0.0485;0.0115;0.00158;1.38;350
3812;417;0.0485;0.0115;0.00158;1.38;350
3814;417;0.0485;0.0115;0.00158;1.38;350
3816;417;0.0485;0.0115;0.00158;1.38;350
3818;417;0.0485;0.0115;0.00158;1.38;350
3820;417;0.0485;0.0115;0.00158;1.38;350
3822;417;0.0485;0.0115;0.00158;1.38;350
3824;417;0.0485;0.0115;0.00158;1.38;350
3826;417;0.0485;0.0115;0.00158;1.38;350
3828;417;0.0485;0.0115;0.00158;1.38;350
3830;417;0.0485;0.0115;0.00158;1.38;350
3832;417;0.0485;0.0115;0.00158;1.37;350
3834;417;0.0485;0.0115;0.00158;1.37;350
3836;417;0.0485;0.0115;0.00158;1.38;350
3838;417;0.0485;0.0115;0.00158;1.37;350
3840;417;0.0485;0.0115;0.00158;1.37;350
3842;417;0.0485;0.0115;0.00158;1.37;350
3844;417;0.0485;0.0115;0.00158;1.37;350
3846;417;0.0485;0.0115;0.00158;1.37;350
3848;417;0.0485;0.0115;0.00158;1.37;350
3850;417;0.0485;0.0115;0.00158;1.37;350
3852;417;0.0485;0.0115;0.00158;1.37;350
3854;417;0.0485;0.0115;0.00158;1.37;350
3856;417;0.0485;0.0115;0.00158;1.38;350
3858;417;0.0485;0.0115;0.00158;1.37;350
3860;418;0.0485;0.0115;0.00158;1.37;350
3862;418;0.0485;0.0115;0.00158;1.37;350
3864;418;0.0485;0.0115;0.00158;1.37;350
3866;418;0.0485;0.0115;0.00158;1.37;350
3868;418;0.0485;0.0115;0.00158;1.37;350
3870;418;0.0485;0.0115;0.00158;1.37;350
3872;418;0.0485;0.0115;0.00158;1.37;350
3874;418;0.0485;0.0115;0.00158;1.37;350
3876;418;0.0485;0.0115;0.00158;1.37;350
3878;418;0.0485;0.0115;0.00158;1.37;350
3880;418;0.0485;0.0115;0.00158;1.37;350
3882;418;0.0485;0.0115;0.00158;1.37;350
3884;418;0.0485;0.0115;0.00158;1.37;350
3886;418;0.0485;0.0115;0.00158;1.37;350
3888;418;0.0485;0.0115;0.00158;1.37;350
3890;418;0.0485;0.0115;0.00158;1.37;350
3892;418;0.0485;0.0115;0.00158;1.36;350
3894;418;0.0485;0.0115;0.00158;1.37;350
3896;418;0.0485;0.0115;0.00158;1.36;350
3898;418;0.0485;0.0115;0.00158;1.37;350
3900;418;0.0485;0.0115;0.00158;1.37;350
3902;418;0.0485;0.0115;0.00158;1.36;350
3904;418;0.0485;0.0115;0.00158;1.36;350
3906;418;0.0485;0.0115;0.00158;1.36;350
3908;418;0.0485;0.0115;0.00158;1.36;350
3910;418;0.0485;0.0115;0.00158;1.36;350
3912;418;0.0485;0.0115;0.00158;1.36;350
3914;418;0.0485;0.0115;0.00158;1.37;350
3916;418;0.0485;0.0115;0.00158;1.36;350
3918;418;0.0485;0.0115;0.00158;1.36;350
3920;417;0.0485;0.0115;0.00158;1.36;350
3922;417;0.0485;0.0115;0.00158;1.36;350
3924;418;0.0485;0.0115;0.00158;1.36;350
3926;417;0.0485;0.0115;0.00158;1.36;350
3928;418;0.0485;0.0115;0.00158;1.36;350
3930;417;0.0485;0.0115;0.00158;1.36;350
3932;417;0.0485;0.0115;0.00158;1.36;350
3934;417;0.0485;0.0115;0.00158;1.36;350
3936;417;0.0485;0.0115;0.00158;1.36;350
3938;417;0.0485;0.0115;0.00158;1.36;350
3940;417;0.0485;0.0115;0.00158;1.36;350
3942;417;0.0485;0.0115;0.00158;1.36;350
3944;417;0.0485;0.0115;0.00158;1.36;350
3946;417;0.0485;0.0115;0.00158;1.36;350
3948;417;0.0485;0.0115;0.00158;1.36;350
3950;417;0.0485;0.0115;0.00158;1.36;350
3952;417;0.0485;0.0115;0.00158;1.35;350
3954;417;0.0485;0.0115;0.00158;1.36;350
3956;417;0.0485;0.0115;0.00158;1.35;350
3958;417;0.0485;0.0115;0.00158;1.35;350
3960;417;0.0485;0.0115;0.00158;1.35;350
3962;417;0.0485;0.0115;0.00158;1.35;350
3964;417;0.0485;0.0115;0.00158;1.35;350
3966;417;0.0485;0.0115;0.00158;1.35;350
3968;417;0.0485;0.0115;0.00158;1.35;350
3970;417;0.0485;0.0115;0.00158;1.35;350
3972;417;0.0485;0.0115;0.00158;1.35;350
3974;417;0.0485;0.0115;0.00158;1.35;350
3976;417;0.0485;0.0115;0.00158;1.35;350
3978;417;0.0485;0.0115;0.00158;1.35;350
3980;417;0.0485;0.0115;0.00158;1.34;350
3982;417;0.0485;0.0115;0.00158;1.35;350
3984;417;0.0485;0.0115;0.00158;1.35;350
3986;417;0.0485;0.0115;0.00158;1.35;350
3988;416;0.0485;0.0115;0.00158;1.35;350
3990;417;0.0485;0.0115;0.00158;1.34;350
3992;417;0.0485;0.0115;0.00158;1.35;350
3994;417;0.0485;0.0115;0.00158;1.34;350
3996;417;0.0485;0.0115;0.00158;1.34;350
3998;417;0.0485;0.0115;0.00158;1.34;350
4000;417;0.0485;0.0115;0.00158;1.34;350
4002;417;0.0485;0.0115;0.00158;1.34;350
4004;417;0.0485;0.0115;0.00158;1.34;350
4006;417;0.0485;0.0115;0.00158;1.34;350
4008;417;0.0485;0.0115;0.00158;1.34;350
4010;417;0.0485;0.0115;0.00158;1.34;350
4012;417;0.0485;0.0115;0.00158;1.34;350
4014;417;0.0485;0.0115;0.00158;1.34;350
4016;417;0.0485;0.0115;0.00158;1.34;350
4018;417;0.0485;0.0115;0.00158;1.34;350
4020;417;0.0485;0.0115;0.00158;1.34;350
4022;417;0.0485;0.0115;0.00158;1.34;350
4024;417;0.0485;0.0115;0.00158;1.34;350
4026;417;0.0485;0.0115;0.00158;1.34;350
4028;417;0.0485;0.0115;0.00158;1.33;350
4030;417;0.0485;0.0115;0.00158;1.33;350
4032;417;0.0485;0.0115;0.00158;1.34;350
4034;417;0.0485;0.0115;0.00158;1.33;350
4036;417;0.0485;0.0115;0.00158;1.33;350
4038;417;0.0485;0.0115;0.00158;1.33;350
4040;417;0.0485;0.0115;0.00158;1.33;350
4042;417;0.0485;0.0115;0.00158;1.33;350
4044;417;0.0485;0.0115;0.00158;1.33;350
4046;417;0.0485;0.0115;0.00158;1.33;350
4048;416;0.0485;0.0115;0.00158;1.33;350
4050;416;0.0485;0.0115;0.00158;1.33;350
4052;416;0.0485;0.0115;0.00158;1.33;350
4054;416;0.0485;0.0115;0.00158;1.33;350
4056;416;0.0485;0.0115;0.00158;1.33;350
4058;416;0.0485;0.0115;0.00158;1.33;350
4060;416;0.0485;0.0115;0.00158;1.33;350
4062;416;0.0485;0.0115;0.00158;1.33;350
4064;416;0.0485;0.0115;0.00158;1.32;350
4066;416;0.0485;0.0115;0.00158;1.33;350
4068;416;0.0485;0.0115;0.00158;1.32;350
4070;416;0.0485;0.0115;0.00158;1.33;350
4072;416;0.0485;0.0115;0.00158;1.33;350
4074;416;0.0485;0.0115;0.00158;1.32;350
4076;416;0.0485;0.0115;0.00158;1.33;350
4078;416;0.0485;0.0115;0.00158;1.32;350
4080;416;0.0485;0.0115;0.00158;1.32;350
4082;416;0.0485;0.0115;0.00158;1.32;350
4084;416;0.0485;0.0115;0.00158;1.33;350
4086;416;0.0485;0.0115;0.00158;1.32;350
4088;416;0.0485;0.0115;0.00158;1.32;350
4090;416;0.0485;0.0115;0.00158;1.32;350
4092;416;0.0485;0.0115;0.00158;1.32;350
4094;416;0.0485;0.0115;0.00158;1.32;350
4096;415;0.0485;0.0115;0.00158;1.32;350
4098;415;0.0485;0.0115;0.00158;1.32;350
4100;415;0.0485;0.0115;0.00158;1.32;350
4102;415;0.0485;0.0115;0.00158;1.31;350
4104;415;0.0485;0.0115;0.00158;1.32;350
4106;415;0.0485;0.0115;0.00158;1.32;350
4108;415;0.0485;0.0115;0.00158;1.31;350
4110;415;0.0485;0.0115;0.00158;1.32;350
4112;415;0.0485;0.0115;0.00158;1.31;350
4114;415;0.0485;0.0115;0.00158;1.31;350
4116;415;0.0485;0.0115;0.00158;1.31;350
4118;414;0.0485;0.0115;0.00158;1.31;350
4120;414;0.0485;0.0115;0.00158;1.31;350
4122;415;0.0485;0.0115;0.00158;1.31;350
4124;415;0.0485;0.0115;0.00158;1.31;350
4126;415;0.0485;0.0115;0.00158;1.3;350
4128;415;0.0485;0.0115;0.00158;1.3;350
4130;415;0.0485;0.0115;0.00158;1.3;350
4132;415;0.0485;0.0115;0.00158;1.3;350
4134;415;0.0485;0.0115;0.00158;1.3;350
4136;415;0.0485;0.0115;0.00158;1.3;350
4138;415;0.0485;0.0115;0.00158;1.3;350
4140;415;0.0485;0.0115;0.00158;1.3;350
4142;415;0.0485;0.0115;0.00158;1.3;350
4144;414;0.0485;0.0115;0.00158;1.3;350
4146;414;0.0485;0.0115;0.00158;1.29;350
4148;414;0.0485;0.0115;0.00158;1.3;350
4150;414;0.0485;0.0115;0.00158;1.29;350
4152;414;0.0485;0.0115;0.00158;1.3;350
4154;414;0.0485;0.0115;0.00158;1.3;350
4156;414;0.0485;0.0115;0.00158;1.29;350
4158;414;0.0485;0.0115;0.00158;1.29;350
4160;414;0.0485;0.0115;0.00158;1.29;350
4162;414;0.0485;0.0115;0.00158;1.29;350
4164;414;0.0485;0.0115;0.00158;1.29;350
4166;414;0.0485;0.0115;0.00158;1.29;350
4168;414;0.0485;0.0115;0.00158;1.29;350
4170;414;0.0485;0.0115;0.00158;1.29;350
4172;414;0.0485;0.0115;0.00158;1.29;350
4174;414;0.0485;0.0115;0.00158;1.29;350
4176;414;0.0485;0.0115;0.00158;1.29;350
4178;414;0.0485;0.0115;0.00158;1.29;350
4180;414;0.0485;0.0115;0.00158;1.28;350
4182;414;0.0485;0.0115;0.00158;1.28;350
4184;414;0.0485;0.0115;0.00158;1.28;350
4186;414;0.0485;0.0115;0.00158;1.29;350
4188;414;0.0485;0.0115;0.00158;1.29;350
4190;414;0.0485;0.0115;0.00158;1.28;350
4192;414;0.0485;0.0115;0.00158;1.29;350
4194;414;0.0485;0.0115;0.00158;1.28;350
4196;414;0.0485;0.0115;0.00158;1.28;350
4198;413;0.0485;0.0115;0.00158;1.28;350
4200;413;0.0485;0.0115;0.00158;1.28;350
4202;413;0.0485;0.0115;0.00158;1.28;350
4204;413;0.0485;0.0115;0.00158;1.28;350
4206;413;0.0485;0.0115;0.00158;1.28;350
4208;413;0.0485;0.0115;0.00158;1.28;350
4210;413;0.0485;0.0115;0.00158;1.28;350
4212;413;0.0485;0.0115;0.00158;1.28;350
4214;413;0.0485;0.0115;0.00158;1.27;350
4216;413;0.0485;0.0115;0.00158;1.28;350
4218;413;0.0485;0.0115;0.00158;1.27;350
4220;413;0.0485;0.0115;0.00158;1.28;350
4222;413;0.0485;0.0115;0.00158;1.27;350
4224;413;0.0485;0.0115;0.00158;1.27;350
4226;413;0.0485;0.0115;0.00158;1.27;350
4228;413;0.0485;0.0115;0.00158;1.27;350
4230;412;0.0485;0.0115;0.00158;1.27;350
4232;413;0.0485;0.0115;0.00158;1.27;350
4234;413;0.0485;0.0115;0.00158;1.27;350
4236;412;0.0485;0.0115;0.00158;1.27;350
4238;413;0.0485;0.0115;0.00158;1.26;350
4240;413;0.0485;0.0115;0.00158;1.27;350
4242;412;0.0485;0.0115;0.00158;1.27;350
4244;412;0.0485;0.0115;0.00158;1.26;350
4246;412;0.0485;0.0115;0.00158;1.27;350
4248;412;0.0485;0.0115;0.00158;1.26;350
4250;412;0.0485;0.0115;0.00158;1.26;350
4252;413;0.0485;0.0115;0.00158;1.26;350
4254;413;0.0485;0.0115;0.00158;1.26;350
4256;413;0.0485;0.0115;0.00158;1.26;350
4258;413;0.0485;0.0115;0.00158;1.26;350
4260;413;0.0485;0.0115;0.00158;1.26;350
4262;413;0.0485;0.0115;0.00158;1.26;350
4264;413;0.0485;0.0115;0.00158;1.26;350
4266;413;0.0485;0.0115;0.00158;1.26;350
4268;413;0.0485;0.0115;0.00158;1.26;350
4270;413;0.0485;0.0115;0.00158;1.26;350
4272;413;0.0485;0.0115;0.00158;1.25;350
4274;413;0.0485;0.0115;0.00158;1.25;350
4276;413;0.0485;0.0115;0.00158;1.25;350
4278;413;0.0485;0.0115;0.00158;1.25;350
4280;413;0.0485;0.0115;0.00158;1.26;350
4282;413;0.0485;0.0115;0.00158;1.25;350
4284;413;0.0485;0.0115;0.00158;1.25;350
4286;413;0.0485;0.0115;0.00158;1.25;350
4288;413;0.0485;0.0115;0.00158;1.25;350
4290;413;0.0485;0.0115;0.00158;1.25;350
4292;413;0.0485;0.0115;0.00158;1.25;350
4294;413;0.0485;0.0115;0.00158;1.25;350
4296;413;0.0485;0.0115;0.00158;1.25;350
4298;413;0.0485;0.0115;0.00158;1.25;350
4300;413;0.0485;0.0115;0.00158;1.25;350
4302;413;0.0485;0.0115;0.00158;1.25;350
4304;413;0.0485;0.0115;0.00158;1.25;350
4306;413;0.0485;0.0115;0.00158;1.25;350
4308;413;0.0485;0.0115;0.00158;1.25;350
4310;413;0.0485;0.0115;0.00158;1.25;350
4312;413;0.0485;0.0115;0.00158;1.25;350
4314;413;0.0485;0.0115;0.00158;1.25;350
4316;413;0.0485;0.0115;0.00158;1.25;350
4318;413;0.0485;0.0115;0.00158;1.25;350
4320;413;0.0485;0.0115;0.00158;1.25;350
4322;413;0.0485;0.0115;0.00158;1.24;350
4324;413;0.0485;0.0115;0.00158;1.24;350
4326;414;0.0485;0.0115;0.00158;1.24;350
4328;413;0.0485;0.0115;0.00158;1.24;350
4330;414;0.0485;0.0115;0.00158;1.24;350
4332;414;0.0485;0.0115;0.00158;1.24;350
4334;414;0.0485;0.0115;0.00158;1.24;350
4336;414;0.0485;0.0115;0.00158;1.24;350
4338;414;0.0485;0.0115;0.00158;1.24;350
4340;414;0.0485;0.0115;0.00158;1.24;350
4342;414;0.0485;0.0115;0.00158;1.24;350
4344;414;0.0485;0.0115;0.00158;1.24;350
4346;414;0.0485;0.0115;0.00158;1.24;350
4348;414;0.0485;0.0115;0.00158;1.24;350
4350;414;0.0485;0.0115;0.00158;1.24;350
4352;414;0.0485;0.0115;0.00158;1.24;350
4354;414;0.0485;0.0115;0.00158;1.24;350
4356;414;0.0485;0.0115;0.00158;1.24;350
4358;414;0.0485;0.0115;0.00158;1.24;350
4360;414;0.0485;0.0115;0.00158;1.24;350
4362;414;0.0485;0.0115;0.00158;1.24;350
4364;414;0.0485;0.0115;0.00158;1.24;350
4366;414;0.0485;0.0115;0.00158;1.24;350
4368;414;0.0485;0.0115;0.00158;1.24;350
4370;414;0.0485;0.0115;0.00158;1.24;350
4372;414;0.0485;0.0115;0.00158;1.24;350
4374;414;0.0485;0.0102;0.00273;1.24;350
4376;414;0.0485;0.0101;0.00274;1.24;350
4378;415;0.0485;0.0102;0.00273;1.24;350
4380;415;0.0485;0.0102;0.00273;1.24;350
4382;416;0.0485;0.0102;0.00272;1.24;350
4384;416;0.0485;0.0102;0.00273;1.24;350
4386;416;0.0485;0.0102;0.00273;1.24;350
4388;416;0.0485;0.0102;0.00274;1.24;350
4390;416;0.0485;0.0102;0.00273;1.24;350
4392;416;0.0485;0.0102;0.00271;1.24;350
4394;416;0.0485;0.0102;0.0027;1.24;350
4396;416;0.0485;0.0102;0.00268;1.23;350
4398;416;0.0485;0.0103;0.00266;1.24;350
4400;416;0.0485;0.0102;0.00268;1.23;350
4402;417;0.0485;0.0103;0.00265;1.23;350
4404;417;0.0485;0.0103;0.00261;1.23;350
4406;417;0.0485;0.0103;0.0026;1.23;350
4408;417;0.0485;0.0104;0.00258;1.23;350
4410;417;0.0485;0.0104;0.00256;1.23;350
4412;417;0.0485;0.0104;0.00254;1.23;350
4414;417;0.0485;0.0104;0.00253;1.23;350
4416;417;0.0485;0.0105;0.0025;1.23;350
4418;417;0.0485;0.0105;0.00249;1.23;350
4420;417;0.0485;0.0105;0.00246;1.23;350
4422;417;0.0485;0.0105;0.00244;1.23;350
4424;417;0.0485;0.0106;0.00241;1.23;350
4426;418;0.0485;0.0106;0.00238;1.23;350
4428;418;0.0485;0.0106;0.00235;1.23;350
4430;418;0.0485;0.0107;0.00233;1.23;350
4432;418;0.0485;0.0107;0.00229;1.24;350
4434;418;0.0485;0.0107;0.00227;1.23;350
4436;418;0.0485;0.0108;0.00226;1.24;350
4438;418;0.0485;0.0108;0.00224;1.24;350
4440;418;0.0485;0.0108;0.00221;1.24;350
4442;418;0.0485;0.0108;0.00221;1.24;350
4444;418;0.0485;0.0109;0.00219;1.24;350
4446;418;0.0485;0.0109;0.00216;1.24;350
4448;418;0.0485;0.0109;0.00215;1.24;350
4450;419;0.0485;0.0109;0.00214;1.24;350
4452;419;0.0485;0.0109;0.00212;1.24;350
4454;419;0.0485;0.0109;0.00211;1.23;350
4456;419;0.0485;0.0110;0.00209;1.23;350
4458;419;0.0485;0.0110;0.00208;1.23;350
4460;419;0.0485;0.0110;0.00206;1.23;350
4462;419;0.0485;0.0110;0.00206;1.23;350
4464;419;0.0485;0.0110;0.00205;1.23;350
4466;419;0.0485;0.0110;0.00204;1.24;350
4468;419;0.0485;0.0110;0.00203;1.24;350
4470;419;0.0485;0.0110;0.00203;1.24;350
4472;419;0.0485;0.0110;0.00202;1.24;350
4474;419;0.0485;0.0111;0.002;1.23;350
4476;419;0.0485;0.0111;0.00199;1.23;350
4478;420;0.0485;0.0111;0.00198;1.23;350
4480;420;0.0485;0.0111;0.00199;1.23;350
4482;419;0.0485;0.0111;0.00197;1.23;350
4484;420;0.0485;0.0111;0.00197;1.23;350
4486;420;0.0485;0.0111;0.00196;1.23;350
4488;420;0.0485;0.0111;0.00193;1.23;350
4490;420;0.0485;0.0112;0.00191;1.23;350
4492;420;0.0485;0.0112;0.00192;1.23;350
4494;420;0.0485;0.0112;0.00192;1.23;350
4496;420;0.0485;0.0112;0.00192;1.23;350
4498;420;0.0485;0.0112;0.00192;1.23;350
4500;420;0.0485;0.0112;0.00191;1.23;350
4502;420;0.0485;0.0112;0.0019;1.23;350
4504;420;0.0485;0.0112;0.00188;1.23;350
4506;420;0.0485;0.0112;0.00186;1.23;350
4508;420;0.0485;0.0112;0.00186;1.23;350
4510;420;0.0485;0.0112;0.00187;1.23;350
4512;420;0.0485;0.0112;0.00187;1.23;350
4514;421;0.0485;0.0112;0.00187;1.23;350
4516;421;0.0485;0.0112;0.00187;1.23;350
4518;421;0.0485;0.0112;0.00185;1.23;350
4520;421;0.0485;0.0112;0.00186;1.23;350
4522;421;0.0485;0.0112;0.00187;1.23;350
4524;421;0.0485;0.0112;0.00187;1.23;350
4526;422;0.0485;0.0112;0.00185;1.23;350
4528;422;0.0485;0.0112;0.00185;1.23;350
4530;422;0.0485;0.0112;0.00187;1.23;350
4532;422;0.0485;0.0112;0.00187;1.23;350
4534;422;0.0485;0.0112;0.00187;1.23;350
4536;422;0.0485;0.0112;0.00186;1.23;350
4538;422;0.0485;0.0112;0.00185;1.23;350
4540;422;0.0485;0.0112;0.00186;1.23;350
4542;422;0.0485;0.0112;0.00186;1.23;350
4544;422;0.0485;0.0112;0.00185;1.23;350
4546;422;0.0485;0.0113;0.00183;1.23;350
4548;422;0.0485;0.0113;0.00182;1.23;350
4550;422;0.0485;0.0113;0.00183;1.23;350
4552;422;0.0485;0.0112;0.00184;1.23;350
4554;422;0.0485;0.0113;0.00181;1.23;350
4556;422;0.0485;0.0113;0.00182;1.23;350
4558;422;0.0485;0.0113;0.0018;1.23;350
4560;422;0.0485;0.0113;0.00182;1.23;350
4562;422;0.0485;0.0113;0.00181;1.23;350
4564;422;0.0485;0.0113;0.00179;1.23;350
4566;422;0.0485;0.0113;0.0018;1.23;350
4568;423;0.0485;0.0113;0.0018;1.23;350
4570;423;0.0485;0.0113;0.00181;1.23;350
4572;423;0.0485;0.0113;0.0018;1.23;350
4574;423;0.0485;0.0113;0.00178;1.23;350
4576;423;0.0485;0.0113;0.00179;1.23;350
4578;423;0.0485;0.0113;0.00181;1.23;350
4580;423;0.0485;0.0113;0.0018;1.23;350
4582;423;0.0485;0.0113;0.00179;1.23;350
4584;423;0.0485;0.0113;0.00181;1.23;350
4586;423;0.0485;0.0113;0.00182;1.23;350
4588;423;0.0485;0.0113;0.00179;1.23;350
4590;423;0.0485;0.0113;0.0018;1.23;350
4592;423;0.0485;0.0113;0.00181;1.23;350
4594;423;0.0485;0.0113;0.00181;1.23;350
4596;423;0.0485;0.0113;0.00182;1.23;350
4598;423;0.0485;0.0113;0.00182;1.23;350
4600;423;0.0485;0.0113;0.00182;1.23;350
4602;423;0.0485;0.0113;0.00182;1.23;350
4604;424;0.0485;0.0113;0.00183;1.23;350
4606;424;0.0485;0.0113;0.00179;1.23;350
4608;424;0.0485;0.0113;0.00181;1.23;350
4610;424;0.0485;0.0113;0.00183;1.23;350
4612;424;0.0485;0.0113;0.00182;1.23;350
4614;424;0.0485;0.0113;0.0018;1.23;350
4616;424;0.0485;0.0113;0.00181;1.23;350
4618;424;0.0485;0.0113;0.00183;1.23;350
4620;424;0.0485;0.0113;0.00183;1.23;350
4622;424;0.0485;0.0113;0.00181;1.23;350
4624;424;0.0485;0.0113;0.0018;1.23;350
4626;424;0.0485;0.0113;0.00181;1.23;350
4628;424;0.0485;0.0113;0.00182;1.23;350
4630;424;0.0485;0.0113;0.0018;1.23;350
4632;424;0.0485;0.0113;0.0018;1.23;350
4634;424;0.0485;0.0113;0.00178;1.23;350
4636;424;0.0485;0.0113;0.00179;1.23;350
4638;424;0.0485;0.0113;0.00181;1.23;350
4640;424;0.0485;0.0113;0.0018;1.23;350
4642;424;0.0485;0.0113;0.00181;1.23;350
4644;425;0.0485;0.0113;0.0018;1.23;350
4646;425;0.0485;0.0113;0.0018;1.23;350
4648;425;0.0485;0.0113;0.0018;1.23;350
4650;425;0.0485;0.0113;0.00182;1.23;350
4652;425;0.0485;0.0113;0.00181;1.23;350
4654;425;0.0485;0.0113;0.0018;1.23;350
4656;425;0.0485;0.0113;0.00182;1.23;350
4658;426;0.0485;0.0113;0.0018;1.23;350
4660;426;0.0485;0.0113;0.00179;1.23;350
4662;426;0.0485;0.0113;0.00181;1.23;350
4664;426;0.0485;0.0113;0.00179;1.23;350
4666;426;0.0485;0.0113;0.0018;1.23;350
4668;426;0.0485;0.0113;0.00182;1.23;350
4670;426;0.0485;0.0113;0.00182;1.23;350
4672;426;0.0485;0.0113;0.00181;1.23;350
4674;426;0.0485;0.0113;0.00181;1.23;350
4676;426;0.0485;0.0113;0.00179;1.23;350
4678;426;0.0485;0.0113;0.00182;1.23;350
4680;426;0.0485;0.0113;0.00181;1.23;350
4682;426;0.0485;0.0113;0.00181;1.23;350
4684;426;0.0485;0.0113;0.00179;1.23;350
4686;426;0.0485;0.0113;0.0018;1.23;350
4688;426;0.0485;0.0113;0.00179;1.23;350
4690;426;0.0485;0.0113;0.00178;1.23;350
4692;426;0.0485;0.0113;0.0018;1.23;350
4694;426;0.0485;0.0113;0.0018;1.23;350
4696;426;0.0485;0.0113;0.00179;1.23;350
4698;426;0.0485;0.0113;0.00182;1.22;350
4700;426;0.0485;0.0113;0.00179;1.23;350
4702;426;0.0485;0.0113;0.00181;1.23;350
4704;426;0.0485;0.0113;0.00181;1.23;350
4706;426;0.0485;0.0113;0.00178;1.23;350
4708;426;0.0485;0.0113;0.0018;1.23;350
4710;426;0.0485;0.0113;0.00178;1.23;350
4712;426;0.0485;0.0113;0.0018;1.23;350
4714;426;0.0485;0.0113;0.00178;1.23;350
4716;426;0.0485;0.0113;0.00179;1.23;350
4718;426;0.0485;0.0113;0.00178;1.23;350
4720;426;0.0485;0.0113;0.00179;1.23;350
4722;427;0.0485;0.0113;0.00178;1.23;350
4724;427;0.0485;0.0113;0.00178;1.23;350
4726;427;0.0485;0.0113;0.00178;1.23;350
4728;426;0.0485;0.0113;0.00178;1.23;350
4730;426;0.0485;0.0113;0.00178;1.23;350
4732;427;0.0485;0.0113;0.00178;1.23;350
4734;427;0.0485;0.0113;0.00178;1.23;350
4736;427;0.0485;0.0113;0.00177;1.23;350
4738;427;0.0485;0.0113;0.00178;1.23;350
4740;427;0.0485;0.0113;0.00177;1.23;350
4742;427;0.0485;0.0113;0.00179;1.22;350
4744;427;0.0485;0.0113;0.00179;1.23;350
4746;427;0.0485;0.0113;0.0018;1.22;350
4748;427;0.0485;0.0113;0.00178;1.22;350
4750;427;0.0485;0.0113;0.00179;1.22;350
4752;427;0.0485;0.0113;0.00179;1.23;350
4754;427;0.0485;0.0113;0.00177;1.23;350
4756;427;0.0485;0.0113;0.00178;1.23;350
4758;427;0.0485;0.0113;0.00178;1.23;350
4760;427;0.0485;0.0113;0.00179;1.23;350
4762;427;0.0485;0.0113;0.00179;1.22;350
4764;427;0.0485;0.0113;0.00176;1.23;350
4766;427;0.0485;0.0113;0.00178;1.22;350
4768;427;0.0485;0.0113;0.00178;1.23;350
4770;427;0.0485;0.0113;0.0018;1.22;350
4772;427;0.0485;0.0113;0.00176;1.23;350
4774;428;0.0485;0.0113;0.00178;1.22;350
4776;428;0.0485;0.0113;0.00176;1.23;350
4778;428;0.0485;0.0113;0.00178;1.23;350
4780;428;0.0485;0.0113;0.00176;1.22;350
4782;428;0.0485;0.0113;0.00176;1.22;350
4784;428;0.0485;0.0113;0.00176;1.22;350
4786;428;0.0485;0.0113;0.00178;1.22;350
4788;428;0.0485;0.0113;0.00175;1.22;350
4790;428;0.0485;0.0113;0.00177;1.23;350
4792;428;0.0485;0.0113;0.00176;1.22;350
4794;428;0.0485;0.0113;0.00176;1.23;350
4796;428;0.0485;0.0113;0.00177;1.23;350
4798;428;0.0485;0.0113;0.00177;1.23;350
4800;428;0.0485;0.0113;0.00176;1.22;350
4802;428;0.0485;0.0113;0.00177;1.22;350
4804;428;0.0485;0.0113;0.00176;1.23;350
4806;428;0.0485;0.0113;0.00177;1.22;350
4808;428;0.0485;0.0113;0.00178;1.23;350
4810;428;0.0485;0.0113;0.00177;1.22;350
4812;428;0.0485;0.0113;0.00178;1.23;350
4814;428;0.0485;0.0113;0.00177;1.22;350
4816;428;0.0485;0.0113;0.00177;1.22;350
4818;428;0.0485;0.0113;0.00177;1.22;350
4820;429;0.0485;0.0113;0.00179;1.22;350
4822;429;0.0485;0.0113;0.00177;1.22;350
4824;429;0.0485;0.0113;0.00178;1.22;350
4826;428;0.0485;0.0113;0.00178;1.23;350
4828;429;0.0485;0.0113;0.00177;1.22;350
4830;429;0.0485;0.0113;0.00177;1.22;350
4832;429;0.0485;0.0113;0.00179;1.22;350
4834;429;0.0485;0.0113;0.00179;1.22;350
4836;429;0.0485;0.0113;0.00178;1.22;350
4838;429;0.0485;0.0113;0.00176;1.22;350
4840;429;0.0485;0.0113;0.00178;1.23;350
4842;429;0.0485;0.0113;0.00176;1.22;350
4844;429;0.0485;0.0113;0.00177;1.22;350
4846;429;0.0485;0.0113;0.00176;1.23;350
4848;429;0.0485;0.0113;0.00178;1.22;350
4850;429;0.0485;0.0113;0.00177;1.22;350
4852;429;0.0485;0.0113;0.00178;1.22;350
4854;429;0.0485;0.0113;0.00178;1.23;350
4856;429;0.0485;0.0113;0.00177;1.22;350
4858;429;0.0485;0.0113;0.00178;1.22;350
4860;429;0.0485;0.0113;0.00177;1.22;350
4862;429;0.0485;0.0113;0.00176;1.22;350
4864;429;0.0485;0.0113;0.00175;1.22;350
4866;429;0.0485;0.0113;0.00178;1.22;350
4868;429;0.0485;0.0113;0.00178;1.22;350
4870;429;0.0485;0.0113;0.00177;1.22;350
4872;429;0.0485;0.0113;0.00178;1.22;350
4874;429;0.0485;0.0113;0.00176;1.22;350
4876;429;0.0485;0.0113;0.00177;1.22;350
4878;429;0.0485;0.0113;0.00178;1.22;350
4880;429;0.0485;0.0113;0.00176;1.22;350
4882;429;0.0485;0.0113;0.00177;1.22;350
4884;429;0.0485;0.0113;0.00177;1.22;350
4886;429;0.0485;0.0113;0.00177;1.22;350
4888;429;0.0485;0.0113;0.00178;1.22;350
4890;429;0.0485;0.0113;0.00178;1.23;350
4892;429;0.0485;0.0113;0.00178;1.22;350
4894;430;0.0485;0.0113;0.00178;1.22;350
4896;429;0.0485;0.0113;0.00179;1.22;350
4898;430;0.0485;0.0113;0.00177;1.22;350
4900;430;0.0485;0.0113;0.0018;1.22;350
4902;430;0.0485;0.0113;0.00178;1.22;350
4904;430;0.0485;0.0113;0.0018;1.22;350
4906;431;0.0485;0.0113;0.00179;1.22;350
4908;430;0.0485;0.0113;0.00179;1.22;350
4910;431;0.0485;0.0113;0.0018;1.22;350
4912;431;0.0485;0.0113;0.00179;1.22;350
4914;431;0.0485;0.0113;0.0018;1.22;350
4916;431;0.0485;0.0113;0.00177;1.22;350
4918;431;0.0485;0.0113;0.00177;1.22;350
4920;431;0.0485;0.0113;0.00179;1.22;350
4922;431;0.0485;0.0113;0.00178;1.22;350
4924;431;0.0485;0.0113;0.00179;1.22;350
4926;431;0.0485;0.0113;0.00178;1.22;350
4928;431;0.0485;0.0113;0.00177;1.23;350
4930;431;0.0485;0.0113;0.00179;1.23;350
4932;431;0.0485;0.0113;0.00177;1.22;350
4934;431;0.0485;0.0113;0.00179;1.22;350
4936;431;0.0485;0.0113;0.00179;1.22;350
4938;431;0.0485;0.0113;0.00179;1.23;350
4940;431;0.0485;0.0113;0.00177;1.22;350
4942;431;0.0485;0.0113;0.00177;1.22;350
4944;431;0.0485;0.0113;0.00178;1.22;350
4946;431;0.0485;0.0113;0.00179;1.22;350
4948;431;0.0485;0.0113;0.00179;1.22;350
4950;431;0.0485;0.0113;0.00178;1.22;350
4952;431;0.0485;0.0113;0.0018;1.22;350
4954;431;0.0485;0.0113;0.00179;1.22;350
4956;431;0.0485;0.0113;0.00177;1.22;350
4958;431;0.0485;0.0113;0.00177;1.22;350
4960;431;0.0485;0.0113;0.00178;1.22;350
4962;431;0.0485;0.0113;0.00176;1.22;350
4964;431;0.0485;0.0113;0.00179;1.22;350
4966;431;0.0485;0.0113;0.00176;1.22;350
4968;431;0.0485;0.0113;0.00176;1.22;350
4970;431;0.0485;0.0113;0.00176;1.22;350
4972;431;0.0485;0.0113;0.00177;1.22;350
4974;431;0.0485;0.0113;0.00177;1.22;350
4976;431;0.0485;0.0113;0.00177;1.22;350
4978;431;0.0485;0.0113;0.00178;1.23;350
4980;431;0.0485;0.0113;0.00177;1.22;350
4982;431;0.0485;0.0113;0.00179;1.22;350
4984;431;0.0485;0.0113;0.00179;1.22;350
4986;431;0.0485;0.0113;0.00179;1.22;350
4988;431;0.0485;0.0113;0.00179;1.22;350
4990;431;0.0485;0.0113;0.0018;1.22;350
4992;431;0.0485;0.0113;0.0018;1.22;350
4994;431;0.0485;0.0113;0.00178;1.22;350
4996;431;0.0485;0.0113;0.00178;1.22;350
4998;431;0.0485;0.0113;0.00179;1.22;350
5000;431;0.0485;0.0113;0.00178;1.22;350
5002;431;0.0485;0.0113;0.00178;1.22;350
5004;431;0.0485;0.0113;0.00179;1.22;350
5006;431;0.0485;0.0113;0.00177;1.22;350
5008;431;0.0485;0.0113;0.00178;1.22;350
5010;431;0.0485;0.0113;0.00177;1.22;350
5012;432;0.0485;0.0113;0.00177;1.22;350
5014;431;0.0485;0.0113;0.00178;1.22;350
5016;431;0.0485;0.0113;0.00175;1.22;350
5018;431;0.0485;0.0113;0.00177;1.22;350
5020;431;0.0485;0.0113;0.00175;1.22;350
5022;431;0.0485;0.0113;0.00177;1.22;350
5024;431;0.0485;0.0113;0.00176;1.22;350
5026;431;0.0485;0.0113;0.00177;1.22;350
5028;431;0.0485;0.0113;0.00176;1.22;350
5030;431;0.0485;0.0113;0.00176;1.22;350
5032;431;0.0485;0.0113;0.00177;1.22;350
5034;431;0.0485;0.0113;0.00175;1.22;350
5036;432;0.0485;0.0113;0.00175;1.22;350
5038;432;0.0485;0.0113;0.00178;1.22;350
5040;432;0.0485;0.0113;0.00177;1.22;350
5042;432;0.0485;0.0113;0.00178;1.22;350
5044;432;0.0485;0.0113;0.00178;1.22;350
5046;432;0.0485;0.0113;0.00178;1.22;350
5048;432;0.0485;0.0113;0.00177;1.22;350
5050;432;0.0485;0.0113;0.00177;1.22;350
5052;432;0.0485;0.0113;0.0018;1.22;350
5054;432;0.0485;0.0113;0.00177;1.22;350
5056;432;0.0485;0.0113;0.00179;1.22;350
5058;432;0.0485;0.0113;0.00177;1.22;350
5060;432;0.0485;0.0113;0.00178;1.22;350
5062;432;0.0485;0.0113;0.00176;1.22;350
5064;432;0.0485;0.0113;0.00178;1.22;350
5066;432;0.0485;0.0113;0.00176;1.22;350
5068;432;0.0485;0.0113;0.00176;1.22;350
5070;432;0.0485;0.0113;0.00176;1.22;350
5072;432;0.0485;0.0113;0.00178;1.22;350
5074;432;0.0485;0.0113;0.00177;1.22;350
5076;432;0.0485;0.0113;0.00177;1.22;350
5078;432;0.0485;0.0113;0.00178;1.22;350
5080;432;0.0485;0.0113;0.00178;1.22;350
5082;432;0.0485;0.0113;0.00175;1.22;350
5084;432;0.0485;0.0113;0.00177;1.22;350
5086;432;0.0485;0.0113;0.00176;1.22;350
5088;432;0.0485;0.0113;0.00176;1.22;350
5090;432;0.0485;0.0113;0.00176;1.22;350
5092;432;0.0485;0.0114;0.00174;1.22;350
5094;432;0.0485;0.0113;0.00176;1.22;350
5096;432;0.0485;0.0113;0.00175;1.22;350
5098;432;0.0485;0.0113;0.00176;1.22;350
5100;432;0.0485;0.0113;0.00176;1.22;350
5102;432;0.0485;0.0113;0.00176;1.22;350
5104;432;0.0485;0.0113;0.00177;1.22;350
5106;432;0.0485;0.0113;0.00175;1.22;350
5108;432;0.0485;0.0113;0.00178;1.22;350
5110;432;0.0485;0.0113;0.00179;1.22;350
5112;432;0.0485;0.0113;0.00177;1.22;350
5114;432;0.0485;0.0113;0.00178;1.22;350
5116;433;0.0485;0.0113;0.00178;1.22;350
5118;432;0.0485;0.0113;0.00179;1.22;350
5120;433;0.0485;0.0113;0.0018;1.22;350
5122;432;0.0485;0.0113;0.00179;1.22;350
5124;433;0.0485;0.0113;0.00177;1.21;350
5126;433;0.0485;0.0113;0.00178;1.22;350
5128;432;0.0485;0.0113;0.00177;1.22;350
5130;433;0.0485;0.0113;0.00179;1.22;350
5132;432;0.0485;0.0113;0.00179;1.22;350
5134;432;0.0485;0.0113;0.00178;1.22;350
5136;433;0.0485;0.0113;0.00178;1.22;350
5138;433;0.0485;0.0113;0.00179;1.22;350
5140;433;0.0485;0.0113;0.00177;1.21;350
5142;433;0.0485;0.0113;0.0018;1.22;350
5144;432;0.0485;0.0113;0.0018;1.22;350
5146;433;0.0485;0.0113;0.00178;1.22;350
5148;433;0.0485;0.0113;0.00179;1.22;350
5150;433;0.0485;0.0113;0.00178;1.21;350
5152;433;0.0485;0.0113;0.00178;1.22;350
5154;433;0.0485;0.0113;0.00178;1.21;350
5156;433;0.0485;0.0113;0.00179;1.21;350
5158;433;0.0485;0.0113;0.00179;1.22;350
5160;433;0.0485;0.0113;0.00178;1.21;350
5162;433;0.0485;0.0113;0.00176;1.22;350
5164;433;0.0485;0.0113;0.00178;1.22;350
5166;434;0.0485;0.0113;0.00178;1.22;350
5168;434;0.0485;0.0113;0.00178;1.22;350
5170;434;0.0485;0.0113;0.00179;1.22;350
5172;434;0.0485;0.0113;0.00178;1.22;350
5174;434;0.0485;0.0113;0.00177;1.21;350
5176;434;0.0485;0.0113;0.00179;1.22;350
5178;434;0.0485;0.0113;0.00178;1.22;350
5180;434;0.0485;0.0113;0.00177;1.22;350
5182;434;0.0485;0.0113;0.00178;1.22;350
5184;434;0.0485;0.0113;0.00177;1.22;350
5186;434;0.0485;0.0113;0.00178;1.22;350
5188;434;0.0485;0.0113;0.00178;1.22;350
5190;434;0.0485;0.0113;0.00178;1.22;350
5192;434;0.0485;0.0113;0.00177;1.22;350
5194;434;0.0485;0.0113;0.00178;1.22;350
5196;434;0.0485;0.0113;0.00177;1.22;350
5198;434;0.0485;0.0113;0.00179;1.22;350
5200;434;0.0485;0.0113;0.00176;1.22;350
5202;434;0.0485;0.0113;0.00177;1.22;350
5204;434;0.0485;0.0113;0.00177;1.22;350
5206;434;0.0485;0.0113;0.00178;1.22;350
5208;434;0.0485;0.0113;0.00178;1.22;350
5210;434;0.0485;0.0113;0.00176;1.22;350
5212;434;0.0485;0.0113;0.00179;1.22;350
5214;434;0.0485;0.0113;0.00176;1.22;350
5216;434;0.0485;0.0113;0.00177;1.22;350
5218;434;0.0485;0.0113;0.00178;1.22;350
5220;434;0.0485;0.0113;0.00175;1.22;350
5222;434;0.0485;0.0113;0.00178;1.22;350
5224;435;0.0485;0.0113;0.00177;1.22;350
5226;434;0.0485;0.0113;0.00176;1.22;350
5228;434;0.0485;0.0113;0.00179;1.22;350
5230;435;0.0485;0.0113;0.00178;1.22;350
5232;435;0.0485;0.0113;0.00177;1.22;350
5234;435;0.0485;0.0113;0.00176;1.22;350
5236;435;0.0485;0.0113;0.00178;1.22;350
5238;435;0.0485;0.0113;0.00178;1.22;350
5240;435;0.0485;0.0113;0.00176;1.22;350
5242;435;0.0485;0.0113;0.00177;1.22;350
5244;435;0.0485;0.0113;0.00177;1.22;350
5246;435;0.0485;0.0113;0.00177;1.22;350
5248;435;0.0485;0.0113;0.00176;1.22;350
5250;435;0.0485;0.0113;0.00176;1.22;350
5252;435;0.0485;0.0113;0.00175;1.22;350
5254;435;0.0485;0.0113;0.00177;1.22;350
5256;435;0.0485;0.0113;0.00176;1.22;350
5258;435;0.0485;0.0114;0.00174;1.22;350
5260;435;0.0485;0.0113;0.00177;1.22;350
5262;435;0.0485;0.0113;0.00176;1.22;350
5264;435;0.0485;0.0113;0.00177;1.22;350
5266;435;0.0485;0.0113;0.00178;1.22;350
5268;435;0.0485;0.0113;0.00177;1.22;350
5270;435;0.0485;0.0113;0.00178;1.22;350
5272;435;0.0485;0.0113;0.00178;1.22;350
5274;435;0.0485;0.0113;0.00176;1.22;350
5276;435;0.0485;0.0113;0.00179;1.22;350
5278;435;0.0485;0.0113;0.00179;1.22;350
5280;435;0.0485;0.0113;0.00178;1.22;350
5282;435;0.0485;0.0113;0.00179;1.22;350
5284;435;0.0485;0.0113;0.00179;1.22;350
5286;435;0.0485;0.0113;0.00178;1.22;350
5288;435;0.0485;0.0113;0.00178;1.22;350
5290;435;0.0485;0.0113;0.00177;1.22;350
5292;435;0.0485;0.0113;0.00178;1.22;350
5294;435;0.0485;0.0113;0.00178;1.22;350
5296;435;0.0485;0.0113;0.00178;1.22;350
5298;436;0.0485;0.0113;0.00179;1.22;350
5300;436;0.0485;0.0113;0.00179;1.22;350
5302;436;0.0485;0.0113;0.00178;1.22;350
5304;436;0.0485;0.0113;0.00177;1.22;350
5306;436;0.0485;0.0113;0.00177;1.22;350
5308;436;0.0485;0.0113;0.00178;1.22;350
5310;436;0.0485;0.0113;0.00179;1.22;350
5312;436;0.0485;0.0113;0.00179;1.22;350
5314;437;0.0485;0.0113;0.00179;1.22;350
5316;437;0.0485;0.0113;0.00176;1.22;350
5318;437;0.0485;0.0113;0.00177;1.22;350
5320;437;0.0485;0.0113;0.00177;1.22;350
5322;436;0.0485;0.0113;0.00176;1.22;350
5324;437;0.0485;0.0113;0.00177;1.22;350
5326;436;0.0485;0.0113;0.00177;1.22;350
5328;436;0.0485;0.0113;0.00177;1.22;350
5330;436;0.0485;0.0113;0.00177;1.22;350
5332;436;0.0485;0.0113;0.00177;1.22;350
5334;436;0.0485;0.0113;0.00176;1.22;350
5336;436;0.0485;0.0113;0.00177;1.22;350
5338;436;0.0485;0.0113;0.00175;1.22;350
5340;436;0.0485;0.0114;0.00174;1.22;350
5342;436;0.0485;0.0113;0.00175;1.22;350
5344;436;0.0485;0.0113;0.00176;1.22;350
5346;436;0.0485;0.0113;0.00176;1.22;350
5348;437;0.0485;0.0113;0.00177;1.22;350
5350;436;0.0485;0.0113;0.00176;1.22;350
5352;436;0.0485;0.0113;0.00174;1.22;350
5354;436;0.0485;0.0113;0.00175;1.22;350
5356;437;0.0485;0.0113;0.00176;1.22;350
5358;436;0.0485;0.0113;0.00178;1.22;350
5360;436;0.0485;0.0113;0.00178;1.22;350
5362;436;0.0485;0.0113;0.00177;1.22;350
5364;436;0.0485;0.0113;0.00178;1.22;350
5366;436;0.0485;0.0113;0.00178;1.22;350
5368;436;0.0485;0.0113;0.00178;1.22;350
5370;436;0.0485;0.0113;0.00179;1.22;350
5372;436;0.0485;0.0113;0.00176;1.22;350
5374;436;0.0485;0.0113;0.00178;1.22;350
5376;436;0.0485;0.0113;0.00177;1.22;350
5378;436;0.0485;0.0113;0.00178;1.22;350
5380;436;0.0485;0.0113;0.00178;1.22;350
5382;436;0.0485;0.0113;0.00177;1.22;350
5384;436;0.0485;0.0113;0.00177;1.22;350
5386;436;0.0485;0.0113;0.00177;1.22;350
5388;436;0.0485;0.0113;0.00176;1.22;350
5390;436;0.0485;0.0113;0.00176;1.22;350
5392;436;0.0485;0.0113;0.00177;1.22;350
5394;436;0.0485;0.0113;0.00177;1.22;350
5396;436;0.0485;0.0113;0.00176;1.22;350
5398;436;0.0485;0.0113;0.00175;1.22;350
5400;436;0.0485;0.0113;0.00176;1.22;350
5402;436;0.0485;0.0113;0.00178;1.22;350
5404;436;0.0485;0.0113;0.00176;1.22;350
5406;436;0.0485;0.0113;0.00176;1.22;350
5408;436;0.0485;0.0113;0.00177;1.22;350
5410;436;0.0485;0.0113;0.00175;1.22;350
5412;436;0.0485;0.0114;0.00174;1.22;350
5414;436;0.0485;0.0113;0.00176;1.22;350
5416;436;0.0485;0.0113;0.00177;1.22;350
5418;436;0.0485;0.0113;0.00178;1.22;350
5420;436;0.0485;0.0113;0.00177;1.22;350
5422;436;0.0485;0.0113;0.00177;1.22;350
5424;436;0.0485;0.0113;0.00177;1.22;350
5426;436;0.0485;0.0113;0.00175;1.22;350
5428;437;0.0485;0.0113;0.00175;1.22;350
5430;437;0.0485;0.0113;0.00177;1.22;350
5432;437;0.0485;0.0113;0.00177;1.22;350
5434;437;0.0485;0.0113;0.00176;1.22;350
5436;437;0.0485;0.0113;0.00177;1.22;350
5438;437;0.0485;0.0113;0.00177;1.22;350
5440;437;0.0485;0.0113;0.00177;1.22;350
5442;437;0.0485;0.0113;0.00177;1.22;350
5444;437;0.0485;0.0113;0.00176;1.22;350
5446;437;0.0485;0.0113;0.00177;1.22;350
5448;437;0.0485;0.0113;0.00176;1.22;350
5450;437;0.0485;0.0114;0.00174;1.22;350
5452;437;0.0485;0.0113;0.00178;1.22;350
5454;437;0.0485;0.0113;0.00177;1.22;350
5456;437;0.0485;0.0113;0.00176;1.22;350
5458;437;0.0485;0.0113;0.00175;1.22;350
5460;437;0.0485;0.0113;0.00175;1.22;350
5462;437;0.0485;0.0113;0.00175;1.22;350
5464;437;0.0485;0.0113;0.00176;1.22;350
5466;437;0.0485;0.0113;0.00175;1.22;350
5468;437;0.0485;0.0114;0.00174;1.22;350
5470;437;0.0485;0.0113;0.00175;1.22;350
5472;437;0.0485;0.0113;0.00175;1.22;350
5474;437;0.0485;0.0113;0.00175;1.22;350
5476;437;0.0485;0.0114;0.00173;1.22;350
5478;438;0.0485;0.0113;0.00175;1.22;350
5480;437;0.0485;0.0113;0.00176;1.22;350
5482;437;0.0485;0.0114;0.00174;1.22;350
5484;437;0.0485;0.0113;0.00176;1.22;350
5486;438;0.0485;0.0114;0.00173;1.22;350
5488;438;0.0485;0.0114;0.00173;1.22;350
5490;438;0.0485;0.0113;0.00177;1.22;350
5492;437;0.0485;0.0113;0.00177;1.22;350
5494;438;0.0485;0.0113;0.00177;1.22;350
5496;438;0.0485;0.0113;0.00177;1.22;350
5498;438;0.0485;0.0113;0.00177;1.22;350
5500;438;0.0485;0.0113;0.00177;1.22;350
5502;438;0.0485;0.0113;0.00176;1.22;350
5504;438;0.0485;0.0113;0.00177;1.22;350
5506;438;0.0485;0.0113;0.00176;1.22;350
5508;438;0.0485;0.0113;0.00176;1.22;350
5510;438;0.0485;0.0113;0.00176;1.22;350
5512;438;0.0485;0.0113;0.00177;1.22;350
5514;438;0.0485;0.0113;0.00178;1.22;350
5516;437;0.0485;0.0113;0.00176;1.22;350
5518;438;0.0485;0.0113;0.00175;1.22;350
5520;438;0.0485;0.0113;0.00175;1.22;350
5522;438;0.0485;0.0113;0.00175;1.22;350
5524;438;0.0485;0.0113;0.00176;1.22;350
5526;438;0.0485;0.0113;0.00177;1.22;350
5528;438;0.0485;0.0113;0.00176;1.22;350
5530;438;0.0485;0.0113;0.00175;1.22;350
5532;438;0.0485;0.0113;0.00176;1.22;350
5534;438;0.0485;0.0113;0.00177;1.22;350
5536;438;0.0485;0.0113;0.00176;1.22;350
5538;438;0.0485;0.0113;0.00176;1.22;350
5540;438;0.0485;0.0113;0.00177;1.22;350
5542;438;0.0485;0.0113;0.00176;1.22;350
5544;438;0.0485;0.0114;0.00174;1.22;350
5546;438;0.0485;0.0113;0.00175;1.22;350
5548;438;0.0485;0.0113;0.00175;1.22;350
5550;438;0.0485;0.0113;0.00175;1.22;350
5552;438;0.0485;0.0114;0.00174;1.23;350
5554;438;0.0485;0.0114;0.00174;1.22;350
5556;438;0.0485;0.0114;0.00172;1.22;350
5558;439;0.0485;0.0114;0.00173;1.22;350
5560;439;0.0485;0.0114;0.00172;1.22;350
5562;439;0.0485;0.0114;0.00171;1.22;350
5564;439;0.0485;0.0114;0.00171;1.22;350
5566;439;0.0485;0.0114;0.00171;1.22;350
5568;439;0.0485;0.0114;0.00172;1.22;350
5570;439;0.0485;0.0114;0.00172;1.22;350
5572;439;0.0485;0.0114;0.00171;1.22;350
5574;439;0.0485;0.0114;0.00171;1.22;350
5576;439;0.0485;0.0114;0.00171;1.22;350
5578;439;0.0485;0.0114;0.00172;1.22;350
5580;439;0.0485;0.0114;0.00172;1.22;350
5582;439;0.0485;0.0114;0.00173;1.22;350
5584;439;0.0485;0.0114;0.00174;1.22;350
5586;439;0.0485;0.0114;0.00174;1.22;350
5588;439;0.0485;0.0114;0.00174;1.22;350
5590;439;0.0485;0.0114;0.00172;1.22;350
5592;439;0.0485;0.0114;0.00173;1.22;350
5594;439;0.0485;0.0114;0.00173;1.22;350
5596;439;0.0485;0.0114;0.00172;1.22;350
5598;439;0.0485;0.0114;0.00172;1.22;350
5600;439;0.0485;0.0114;0.00174;1.22;350
5602;439;0.0485;0.0114;0.00173;1.22;350
5604;439;0.0485;0.0114;0.00173;1.22;350
5606;439;0.0485;0.0114;0.00171;1.22;350
5608;439;0.0485;0.0114;0.0017;1.22;350
5610;439;0.0485;0.0114;0.00173;1.22;350
5612;439;0.0485;0.0114;0.00174;1.22;350
5614;439;0.0485;0.0114;0.00173;1.22;350
5616;439;0.0485;0.0114;0.00173;1.22;350
5618;439;0.0485;0.0114;0.00173;1.22;350
5620;439;0.0485;0.0114;0.00174;1.22;350
5622;439;0.0485;0.0114;0.00174;1.22;350
5624;439;0.0485;0.0114;0.00172;1.22;350
5626;439;0.0485;0.0114;0.00173;1.22;350
5628;439;0.0485;0.0114;0.00172;1.22;350
5630;439;0.0485;0.0114;0.00172;1.22;350
5632;439;0.0485;0.0114;0.00172;1.22;350
5634;439;0.0485;0.0114;0.00171;1.22;350
5636;439;0.0485;0.0114;0.00171;1.22;350
5638;439;0.0485;0.0114;0.00171;1.22;350
5640;439;0.0485;0.0114;0.00172;1.22;350
5642;439;0.0485;0.0114;0.00173;1.22;350
5644;439;0.0485;0.0114;0.0017;1.22;350
5646;439;0.0485;0.0114;0.0017;1.22;350
5648;439;0.0485;0.0114;0.00171;1.22;350
5650;439;0.0485;0.0114;0.00173;1.22;350
5652;439;0.0485;0.0114;0.00173;1.22;350
5654;439;0.0485;0.0114;0.00173;1.22;350
5656;439;0.0485;0.0114;0.00173;1.22;350
5658;439;0.0485;0.0114;0.00173;1.22;350
5660;439;0.0485;0.0114;0.00174;1.22;350
5662;439;0.0485;0.0114;0.00173;1.22;350
5664;439;0.0485;0.0114;0.00173;1.22;350
5666;439;0.0485;0.0114;0.00173;1.22;350
5668;439;0.0485;0.0114;0.00173;1.22;350
5670;439;0.0485;0.0114;0.00173;1.22;350
5672;439;0.0485;0.0114;0.00172;1.22;350
5674;439;0.0485;0.0114;0.00172;1.22;350
5676;439;0.0485;0.0114;0.00173;1.22;350
5678;439;0.0485;0.0114;0.00173;1.22;350
5680;439;0.0485;0.0114;0.00173;1.22;350
5682;439;0.0485;0.0114;0.00171;1.22;350
5684;439;0.0485;0.0114;0.00171;1.22;350
5686;439;0.0485;0.0114;0.00171;1.22;350
5688;439;0.0485;0.0114;0.00171;1.22;350
5690;440;0.0485;0.0114;0.00173;1.22;350
5692;440;0.0485;0.0114;0.00173;1.22;350
5694;440;0.0485;0.0114;0.00172;1.22;350
5696;440;0.0485;0.0114;0.00171;1.22;350
5698;440;0.0485;0.0114;0.00172;1.22;350
5700;440;0.0485;0.0114;0.00172;1.22;350
5702;440;0.0485;0.0114;0.00171;1.22;350
5704;440;0.0485;0.0114;0.00171;1.22;350
5706;440;0.0485;0.0114;0.00171;1.22;350
5708;440;0.0485;0.0114;0.00171;1.22;350
5710;440;0.0485;0.0114;0.00171;1.22;350
5712;440;0.0485;0.0114;0.0017;1.22;350
5714;440;0.0485;0.0114;0.0017;1.22;350
5716;440;0.0485;0.0114;0.00168;1.22;350
5718;440;0.0485;0.0114;0.00168;1.22;350
5720;440;0.0485;0.0114;0.00168;1.22;350
5722;440;0.0485;0.0114;0.00168;1.22;350
5724;440;0.0485;0.0114;0.00169;1.22;350
5726;440;0.0485;0.0114;0.00171;1.22;350
5728;440;0.0485;0.0114;0.00171;1.22;350
5730;440;0.0485;0.0114;0.00169;1.22;350
5732;440;0.0485;0.0114;0.0017;1.22;350
5734;440;0.0485;0.0114;0.00169;1.22;350
5736;440;0.0485;0.0114;0.0017;1.22;350
5738;440;0.0485;0.0114;0.00173;1.22;350
5740;440;0.0485;0.0114;0.00171;1.22;350
5742;440;0.0485;0.0114;0.0017;1.22;350
5744;440;0.0485;0.0114;0.00172;1.22;350
5746;440;0.0485;0.0114;0.00172;1.22;350
5748;440;0.0485;0.0114;0.0017;1.22;350
5750;440;0.0485;0.0114;0.00169;1.22;350
5752;440;0.0485;0.0114;0.0017;1.22;350
5754;440;0.0485;0.0114;0.0017;1.22;350
5756;440;0.0485;0.0114;0.0017;1.22;350
5758;440;0.0485;0.0114;0.00167;1.22;350
5760;440;0.0485;0.0114;0.00169;1.22;350
5762;440;0.0485;0.0114;0.00168;1.22;350
5764;440;0.0485;0.0114;0.00168;1.22;350
5766;440;0.0485;0.0114;0.00167;1.22;350
5768;440;0.0485;0.0114;0.00167;1.22;350
5770;440;0.0485;0.0114;0.00169;1.22;350
5772;440;0.0485;0.0114;0.00169;1.22;350
5774;440;0.0485;0.0114;0.00168;1.22;350
5776;440;0.0485;0.0114;0.00168;1.22;350
5778;440;0.0485;0.0114;0.0017;1.22;350
5780;440;0.0485;0.0114;0.0017;1.22;350
5782;440;0.0485;0.0114;0.0017;1.22;350
5784;440;0.0485;0.0114;0.00169;1.22;350
5786;440;0.0485;0.0114;0.00171;1.22;350
5788;440;0.0485;0.0114;0.00169;1.22;350
5790;440;0.0485;0.0114;0.0017;1.22;350
5792;440;0.0485;0.0114;0.0017;1.22;350
5794;440;0.0485;0.0114;0.00172;1.22;350
5796;440;0.0485;0.0114;0.00172;1.22;350
5798;440;0.0485;0.0114;0.00172;1.22;350
5800;440;0.0485;0.0114;0.0017;1.22;350
5802;440;0.0485;0.0114;0.0017;1.22;350
5804;440;0.0485;0.0114;0.0017;1.22;350
5806;440;0.0485;0.0114;0.00171;1.22;350
5808;440;0.0485;0.0114;0.0017;1.22;350
5810;440;0.0485;0.0114;0.00171;1.22;350
5812;440;0.0485;0.0114;0.00169;1.22;350
5814;440;0.0485;0.0114;0.00171;1.22;350
5816;440;0.0485;0.0114;0.00169;1.22;350
5818;440;0.0485;0.0114;0.00169;1.22;350
5820;441;0.0485;0.0114;0.00169;1.22;350
5822;441;0.0485;0.0114;0.00168;1.22;350
5824;441;0.0485;0.0114;0.00167;1.22;350
5826;441;0.0485;0.0114;0.00169;1.22;350
5828;441;0.0485;0.0114;0.00169;1.22;350
5830;441;0.0485;0.0114;0.00169;1.22;350
5832;441;0.0485;0.0114;0.00167;1.22;350
5834;441;0.0485;0.0114;0.00166;1.22;350
5836;441;0.0485;0.0114;0.00168;1.22;350
5838;441;0.0485;0.0114;0.00169;1.22;350
5840;441;0.0485;0.0114;0.00169;1.22;350
5842;441;0.0485;0.0114;0.00168;1.22;350
5844;441;0.0485;0.0114;0.00169;1.22;350
5846;441;0.0485;0.0114;0.00169;1.22;350
5848;441;0.0485;0.0114;0.00166;1.22;350
5850;441;0.0485;0.0114;0.00169;1.22;350
5852;441;0.0485;0.0114;0.00169;1.22;350
5854;441;0.0485;0.0114;0.00169;1.22;350
5856;441;0.0485;0.0114;0.00167;1.22;350
5858;441;0.0485;0.0114;0.00167;1.22;350
5860;441;0.0485;0.0114;0.00168;1.22;350
5862;441;0.0485;0.0114;0.00168;1.22;350
5864;441;0.0485;0.0114;0.00167;1.22;350
5866;441;0.0485;0.0114;0.00166;1.22;350
5868;441;0.0485;0.0114;0.00168;1.22;350
5870;441;0.0485;0.0114;0.00169;1.22;350
5872;441;0.0485;0.0114;0.00168;1.22;350
5874;441;0.0485;0.0114;0.00168;1.22;350
5876;441;0.0485;0.0114;0.00168;1.22;350
5878;441;0.0485;0.0114;0.0017;1.22;350
5880;441;0.0485;0.0114;0.0017;1.22;350
5882;441;0.0485;0.0114;0.0017;1.22;350
5884;441;0.0485;0.0114;0.0017;1.22;350
5886;441;0.0485;0.0114;0.0017;1.22;350
5888;441;0.0485;0.0114;0.0017;1.22;350
5890;441;0.0485;0.0114;0.0017;1.22;350
5892;441;0.0485;0.0114;0.0017;1.22;350
5894;441;0.0485;0.0114;0.0017;1.22;350
5896;441;0.0485;0.0114;0.0017;1.22;350
5898;441;0.0485;0.0114;0.0017;1.21;350
5900;441;0.0485;0.0114;0.0017;1.22;350
5902;441;0.0485;0.0114;0.0017;1.22;350
5904;441;0.0485;0.0114;0.0017;1.22;350
5906;441;0.0485;0.0114;0.0017;1.22;350
5908;441;0.0485;0.0114;0.0017;1.22;350
5910;441;0.0485;0.0114;0.0017;1.22;350
5912;441;0.0485;0.0114;0.0017;1.22;350
5914;441;0.0485;0.0114;0.0017;1.22;350
5916;441;0.0485;0.0114;0.0017;1.22;350
5918;441;0.0485;0.0114;0.0017;1.22;350
5920;441;0.0485;0.0114;0.0017;1.22;350
5922;441;0.0485;0.0114;0.0017;1.22;350
5924;441;0.0485;0.0114;0.0017;1.22;350
5926;440;0.0485;0.0114;0.0017;1.22;350
5928;441;0.0485;0.0114;0.0017;1.22;350
5930;441;0.0485;0.0114;0.0017;1.22;350
5932;441;0.0485;0.0114;0.0017;1.22;350
5934;441;0.0485;0.0114;0.0017;1.22;350
5936;441;0.0485;0.0114;0.0017;1.22;350
5938;441;0.0485;0.0114;0.0017;1.22;350
5940;441;0.0485;0.0114;0.0017;1.22;350
5942;441;0.0485;0.0114;0.0017;1.22;350
5944;441;0.0485;0.0114;0.0017;1.22;350
5946;441;0.0485;0.0114;0.0017;1.22;350
5948;441;0.0485;0.0114;0.0017;1.22;350
5950;442;0.0485;0.0114;0.0017;1.22;350
5952;442;0.0485;0.0114;0.0017;1.22;350
5954;442;0.0485;0.0114;0.0017;1.22;350
5956;442;0.0485;0.0114;0.0017;1.22;350
5958;442;0.0485;0.0114;0.0017;1.22;350
5960;442;0.0485;0.0114;0.0017;1.22;350
5962;442;0.0485;0.0114;0.0017;1.22;350
5964;442;0.0485;0.0114;0.0017;1.22;350
5966;442;0.0485;0.0114;0.0017;1.21;350
5968;442;0.0485;0.0114;0.0017;1.22;350
5970;442;0.0485;0.0114;0.0017;1.22;350
5972;442;0.0485;0.0114;0.0017;1.22;350
5974;442;0.0485;0.0114;0.0017;1.22;350
5976;442;0.0485;0.0114;0.0017;1.22;350
5978;442;0.0485;0.0114;0.0017;1.22;350
5980;442;0.0485;0.0114;0.0017;1.22;350
5982;442;0.0485;0.0114;0.0017;1.22;350
5984;442;0.0485;0.0114;0.0017;1.22;350
5986;442;0.0485;0.0114;0.0017;1.21;350
5988;442;0.0485;0.0114;0.0017;1.22;350
5990;442;0.0485;0.0114;0.0017;1.22;350
5992;442;0.0485;0.0114;0.0017;1.22;350
5994;442;0.0485;0.0114;0.0017;1.22;350
5996;442;0.0485;0.0114;0.0017;1.22;350
5998;442;0.0485;0.0114;0.0017;1.22;350
6000;442;0.0485;0.0114;0.0017;1.22;350
6002;442;0.0485;0.0114;0.0017;1.22;350
6004;442;0.0485;0.0114;0.0017;1.22;350
6006;442;0.0485;0.0114;0.0017;1.21;350
6008;442;0.0485;0.0114;0.0017;1.22;350
6010;442;0.0485;0.0114;0.0017;1.21;350
6012;442;0.0485;0.0114;0.0017;1.22;350
6014;442;0.0485;0.0114;0.0017;1.22;350
6016;442;0.0485;0.0114;0.0017;1.22;350
6018;442;0.0485;0.0114;0.0017;1.22;350
6020;442;0.0485;0.0114;0.0017;1.22;350
6022;442;0.0485;0.0114;0.0017;1.22;350
6024;442;0.0485;0.0114;0.0017;1.22;350
6026;442;0.0485;0.0114;0.0017;1.22;350
6028;442;0.0485;0.0114;0.0017;1.21;350
6030;442;0.0485;0.0114;0.0017;1.21;350
6032;442;0.0485;0.0114;0.0017;1.21;350
6034;442;0.0485;0.0114;0.0017;1.21;350
6036;442;0.0485;0.0114;0.0017;1.21;350
6038;442;0.0485;0.0114;0.0017;1.21;350
6040;441;0.0485;0.0114;0.0017;1.22;350
6042;442;0.0485;0.0114;0.0017;1.22;350
6044;442;0.0485;0.0114;0.0017;1.22;350
6046;442;0.0485;0.0114;0.0017;1.22;350
6048;442;0.0485;0.0114;0.0017;1.21;350
6050;442;0.0485;0.0114;0.0017;1.21;350
6052;442;0.0485;0.0114;0.0017;1.21;350
6054;442;0.0485;0.0114;0.0017;1.21;350
6056;442;0.0485;0.0114;0.0017;1.22;350
6058;442;0.0485;0.0114;0.0017;1.21;350
6060;442;0.0485;0.0114;0.0017;1.22;350
6062;441;0.0485;0.0114;0.0017;1.22;350
6064;441;0.0485;0.0114;0.0017;1.22;350
6066;441;0.0485;0.0114;0.0017;1.22;350
6068;442;0.0485;0.0114;0.0017;1.21;350
6070;442;0.0485;0.0114;0.0017;1.22;350
6072;442;0.0485;0.0114;0.0017;1.22;350
6074;442;0.0485;0.0114;0.0017;1.22;350
6076;442;0.0485;0.0114;0.0017;1.22;350
6078;442;0.0485;0.0114;0.0017;1.21;350
6080;442;0.0485;0.0114;0.0017;1.22;350
6082;443;0.0485;0.0114;0.0017;1.22;350
6084;442;0.0485;0.0114;0.0017;1.22;350
6086;443;0.0485;0.0114;0.0017;1.22;350
6088;443;0.0485;0.0114;0.0017;1.22;350
6090;443;0.0485;0.0114;0.0017;1.22;350
6092;443;0.0485;0.0114;0.0017;1.22;350
6094;443;0.0485;0.0114;0.0017;1.22;350
6096;443;0.0485;0.0114;0.0017;1.22;350
6098;443;0.0485;0.0114;0.0017;1.21;350
6100;443;0.0485;0.0114;0.0017;1.22;350
6102;443;0.0485;0.0114;0.0017;1.21;350
6104;443;0.0485;0.0114;0.0017;1.21;350
6106;443;0.0485;0.0114;0.0017;1.21;350
6108;443;0.0485;0.0114;0.0017;1.21;350
6110;443;0.0485;0.0114;0.0017;1.22;350
6112;443;0.0485;0.0114;0.0017;1.21;350
6114;443;0.0485;0.0114;0.0017;1.22;350
6116;442;0.0485;0.0114;0.0017;1.22;350
6118;443;0.0485;0.0114;0.0017;1.22;350
6120;443;0.0485;0.0114;0.0017;1.22;350
6122;443;0.0485;0.0114;0.0017;1.22;350
6124;443;0.0485;0.0114;0.0017;1.22;350
6126;443;0.0485;0.0114;0.0017;1.22;350
6128;443;0.0485;0.0114;0.0017;1.22;350
6130;443;0.0485;0.0114;0.0017;1.21;350
6132;443;0.0485;0.0114;0.0017;1.21;350
6134;443;0.0485;0.0114;0.0017;1.22;350
6136;443;0.0485;0.0114;0.0017;1.22;350
6138;443;0.0485;0.0114;0.0017;1.22;350
6140;443;0.0485;0.0114;0.0017;1.22;350
6142;443;0.0485;0.0114;0.0017;1.22;350
6144;443;0.0485;0.0114;0.0017;1.22;350
6146;443;0.0485;0.0114;0.0017;1.22;350
6148;443;0.0485;0.0114;0.0017;1.22;350
6150;443;0.0485;0.0114;0.0017;1.22;350
6152;443;0.0485;0.0114;0.0017;1.21;350
6154;443;0.0485;0.0114;0.0017;1.21;350
6156;443;0.0485;0.0114;0.0017;1.21;350
6158;443;0.0485;0.0114;0.0017;1.22;350
6160;443;0.0485;0.0114;0.0017;1.21;350
6162;443;0.0485;0.0114;0.0017;1.21;350
6164;443;0.0485;0.0114;0.0017;1.22;350
6166;443;0.0485;0.0114;0.0017;1.22;350
6168;443;0.0485;0.0114;0.0017;1.22;350
6170;443;0.0485;0.0114;0.0017;1.22;350
6172;443;0.0485;0.0114;0.0017;1.22;350
6174;443;0.0485;0.0114;0.0017;1.22;350
6176;443;0.0485;0.0114;0.0017;1.22;350
6178;443;0.0485;0.0114;0.0017;1.22;350
6180;443;0.0485;0.0114;0.0017;1.21;350
6182;443;0.0485;0.0114;0.0017;1.22;350
6184;443;0.0485;0.0114;0.0017;1.21;350
6186;443;0.0485;0.0114;0.0017;1.22;350
6188;443;0.0485;0.0114;0.0017;1.22;350
6190;443;0.0485;0.0114;0.0017;1.22;350
6192;443;0.0485;0.0114;0.0017;1.22;350
6194;443;0.0485;0.0114;0.0017;1.21;350
6196;443;0.0485;0.0114;0.0017;1.21;350
6198;443;0.0485;0.0114;0.0017;1.21;350
6200;443;0.0485;0.0114;0.0017;1.21;350
6202;443;0.0485;0.0114;0.0017;1.22;350
6204;443;0.0485;0.0114;0.0017;1.22;350
6206;443;0.0485;0.0114;0.0017;1.22;350
6208;443;0.0485;0.0114;0.0017;1.22;350
6210;443;0.0485;0.0114;0.0017;1.21;350
6212;444;0.0485;0.0114;0.0017;1.22;350
6214;444;0.0485;0.0114;0.0017;1.21;350
6216;444;0.0485;0.0114;0.0017;1.22;350
6218;444;0.0485;0.0114;0.0017;1.21;350
6220;444;0.0485;0.0114;0.0017;1.22;350
6222;444;0.0485;0.0114;0.0017;1.21;350
6224;444;0.0485;0.0114;0.0017;1.22;350
6226;444;0.0485;0.0114;0.0017;1.22;350
6228;444;0.0485;0.0114;0.0017;1.21;350
6230;444;0.0485;0.0114;0.0017;1.22;350
6232;444;0.0485;0.0114;0.0017;1.22;350
6234;444;0.0485;0.0114;0.0017;1.22;350
6236;444;0.0485;0.0114;0.0017;1.21;350
6238;444;0.0485;0.0114;0.0017;1.21;350
6240;444;0.0485;0.0114;0.0017;1.21;350
6242;444;0.0485;0.0114;0.0017;1.21;350
6244;444;0.0485;0.0114;0.0017;1.21;350
6246;444;0.0485;0.0114;0.0017;1.21;350
6248;444;0.0485;0.0114;0.0017;1.21;350
6250;444;0.0485;0.0114;0.0017;1.21;350
6252;444;0.0485;0.0114;0.0017;1.22;350
6254;444;0.0485;0.0114;0.0017;1.22;350
6256;444;0.0485;0.0114;0.0017;1.21;350
6258;444;0.0485;0.0114;0.0017;1.21;350
6260;444;0.0485;0.0114;0.0017;1.21;350
6262;444;0.0485;0.0114;0.0017;1.21;350
6264;444;0.0485;0.0114;0.0017;1.21;350
6266;444;0.0485;0.0114;0.0017;1.21;350
6268;444;0.0485;0.0114;0.0017;1.21;350
6270;444;0.0485;0.0114;0.0017;1.21;350
6272;444;0.0485;0.0114;0.0017;1.21;350
6274;444;0.0485;0.0114;0.0017;1.22;350
6276;444;0.0485;0.0114;0.0017;1.21;350
6278;444;0.0485;0.0114;0.0017;1.21;350
6280;444;0.0485;0.0114;0.0017;1.22;350
6282;444;0.0485;0.0114;0.0017;1.21;350
6284;444;0.0485;0.0114;0.0017;1.22;350
6286;444;0.0485;0.0114;0.0017;1.22;350
6288;444;0.0485;0.0114;0.0017;1.22;350
6290;444;0.0485;0.0114;0.0017;1.22;350
6292;444;0.0485;0.0114;0.0017;1.22;350
6294;444;0.0485;0.0114;0.0017;1.22;350
6296;444;0.0485;0.0114;0.0017;1.22;350
6298;444;0.0485;0.0114;0.0017;1.22;350
6300;444;0.0485;0.0114;0.0017;1.21;350
6302;444;0.0485;0.0114;0.0017;1.21;350
6304;444;0.0485;0.0114;0.0017;1.22;350
6306;444;0.0485;0.0114;0.0017;1.21;350
6308;444;0.0485;0.0114;0.0017;1.22;350
6310;444;0.0485;0.0114;0.0017;1.21;350
6312;444;0.0485;0.0114;0.0017;1.22;350
6314;444;0.0485;0.0114;0.0017;1.22;350
6316;444;0.0485;0.0114;0.0017;1.22;350
6318;444;0.0485;0.0114;0.0017;1.22;350
6320;444;0.0485;0.0114;0.0017;1.21;350
6322;444;0.0485;0.0114;0.0017;1.22;350
6324;444;0.0485;0.0114;0.0017;1.21;350
6326;444;0.0485;0.0114;0.0017;1.22;350
6328;444;0.0485;0.0114;0.0017;1.21;350
6330;444;0.0485;0.0114;0.0017;1.21;350
6332;444;0.0485;0.0114;0.0017;1.22;350
6334;444;0.0485;0.0114;0.0017;1.22;350
6336;444;0.0485;0.0114;0.0017;1.21;350
6338;444;0.0485;0.0114;0.0017;1.22;350
6340;444;0.0485;0.0114;0.0017;1.21;350
6342;445;0.0485;0.0114;0.0017;1.22;350
6344;445;0.0485;0.0114;0.0017;1.21;350
6346;445;0.0485;0.0114;0.0017;1.22;350
6348;445;0.0485;0.0114;0.0017;1.22;350
6350;445;0.0485;0.0114;0.0017;1.22;350
6352;445;0.0485;0.0114;0.0017;1.22;350
6354;445;0.0485;0.0114;0.0017;1.22;350
6356;445;0.0485;0.0114;0.0017;1.22;350
6358;445;0.0485;0.0114;0.0017;1.22;350
6360;445;0.0485;0.0114;0.0017;1.22;350
6362;445;0.0485;0.0114;0.0017;1.22;350
6364;445;0.0485;0.0114;0.0017;1.22;350
6366;445;0.0485;0.0114;0.0017;1.22;350
6368;445;0.0485;0.0114;0.0017;1.22;350
6370;445;0.0485;0.0114;0.0017;1.22;350
6372;445;0.0485;0.0114;0.0017;1.21;350
6374;445;0.0485;0.0114;0.0017;1.21;350
6376;445;0.0485;0.0114;0.0017;1.22;350
6378;445;0.0485;0.0114;0.0017;1.22;350
6380;445;0.0485;0.0114;0.0017;1.22;350
6382;445;0.0485;0.0114;0.0017;1.22;350
6384;445;0.0485;0.0114;0.0017;1.22;350
6386;445;0.0485;0.0114;0.0017;1.22;350
6388;445;0.0485;0.0114;0.0017;1.22;350
6390;445;0.0485;0.0114;0.0017;1.22;350
6392;445;0.0485;0.0114;0.0017;1.22;350
6394;445;0.0485;0.0114;0.0017;1.22;350
6396;445;0.0485;0.0114;0.0017;1.22;350
6398;445;0.0485;0.0114;0.0017;1.22;350
6400;445;0.0485;0.0114;0.0017;1.22;350
6402;445;0.0485;0.0114;0.0017;1.22;350
6404;445;0.0485;0.0114;0.0017;1.22;350
6406;445;0.0485;0.0114;0.0017;1.22;350
6408;445;0.0485;0.0114;0.0017;1.22;350
6410;445;0.0485;0.0114;0.0017;1.22;350
6412;445;0.0485;0.0114;0.0017;1.22;350
6414;445;0.0485;0.0114;0.0017;1.22;350
6416;445;0.0485;0.0114;0.0017;1.22;350
6418;445;0.0485;0.0114;0.0017;1.22;350
6420;445;0.0485;0.0114;0.0017;1.22;350
6422;445;0.0485;0.0114;0.0017;1.22;350
6424;445;0.0485;0.0114;0.0017;1.22;350
6426;445;0.0485;0.0114;0.0017;1.22;350
6428;445;0.0485;0.0114;0.0017;1.22;350
6430;445;0.0485;0.0114;0.0017;1.22;350
6432;445;0.0485;0.0114;0.0017;1.22;350
6434;445;0.0485;0.0114;0.0017;1.22;350
6436;445;0.0485;0.0114;0.0017;1.22;350
6438;445;0.0485;0.0114;0.0017;1.22;350
6440;445;0.0485;0.0114;0.0017;1.22;350
6442;445;0.0485;0.0114;0.0017;1.22;350
6444;445;0.0485;0.0114;0.0017;1.22;350
6446;445;0.0485;0.0114;0.0017;1.22;350
6448;445;0.0485;0.0114;0.0017;1.22;350
6450;445;0.0485;0.0114;0.0017;1.22;350
6452;445;0.0485;0.0114;0.0017;1.22;350
6454;445;0.0485;0.0114;0.0017;1.22;350
6456;445;0.0485;0.0114;0.0017;1.21;350
6458;445;0.0485;0.0114;0.0017;1.22;350
6460;445;0.0485;0.0114;0.0017;1.22;350
6462;445;0.0485;0.0114;0.0017;1.22;350
6464;445;0.0485;0.0114;0.0017;1.22;350
6466;445;0.0485;0.0114;0.0017;1.22;350
6468;445;0.0485;0.0114;0.0017;1.22;350
6470;445;0.0485;0.0114;0.0017;1.22;350
6472;445;0.0485;0.0114;0.0017;1.22;350
6474;446;0.0485;0.0114;0.0017;1.22;350
6476;446;0.0485;0.0114;0.0017;1.22;350
6478;447;0.0485;0.0114;0.0017;1.22;350
6480;446;0.0485;0.0114;0.0017;1.22;350
6482;446;0.0485;0.0114;0.0017;1.22;350
6484;447;0.0485;0.0114;0.0017;1.22;350
6486;446;0.0485;0.0114;0.0017;1.22;350
6488;447;0.0485;0.0114;0.0017;1.22;350
6490;446;0.0485;0.0114;0.0017;1.22;350
6492;446;0.0485;0.0114;0.0017;1.22;350
6494;446;0.0485;0.0114;0.0017;1.22;350
6496;447;0.0485;0.0114;0.0017;1.22;350
6498;446;0.0485;0.0114;0.0017;1.22;350
6500;447;0.0485;0.0114;0.0017;1.22;350
6502;447;0.0485;0.0114;0.0017;1.22;350
6504;447;0.0485;0.0114;0.0017;1.22;350
6506;447;0.0485;0.0114;0.0017;1.22;350
6508;446;0.0485;0.0114;0.0017;1.22;350
6510;447;0.0485;0.0114;0.0017;1.22;350
6512;446;0.0485;0.0114;0.0017;1.22;350
6514;446;0.0485;0.0114;0.0017;1.22;350
6516;447;0.0485;0.0114;0.0017;1.22;350
6518;446;0.0485;0.0114;0.0017;1.22;350
6520;446;0.0485;0.0114;0.0017;1.22;350
6522;446;0.0485;0.0114;0.0017;1.22;350
6524;446;0.0485;0.0114;0.0017;1.22;350
6526;446;0.0485;0.0114;0.0017;1.22;350
6528;447;0.0485;0.0114;0.0017;1.22;350
6530;446;0.0485;0.0114;0.0017;1.22;350
6532;446;0.0485;0.0114;0.0017;1.22;350
6534;446;0.0485;0.0114;0.0017;1.22;350
6536;446;0.0485;0.0114;0.0017;1.22;350
6538;446;0.0485;0.0114;0.0017;1.22;350
6540;446;0.0485;0.0114;0.0017;1.22;350
6542;447;0.0485;0.0114;0.0017;1.22;350
6544;446;0.0485;0.0114;0.0017;1.22;350
6546;446;0.0485;0.0114;0.0017;1.22;350
6548;446;0.0485;0.0114;0.0017;1.22;350
6550;446;0.0485;0.0114;0.0017;1.22;350
6552;446;0.0485;0.0114;0.0017;1.22;350
6554;446;0.0485;0.0114;0.0017;1.22;350
6556;446;0.0485;0.0114;0.0017;1.22;350
6558;446;0.0485;0.0114;0.0017;1.22;350
6560;446;0.0485;0.0114;0.0017;1.22;350
6562;446;0.0485;0.0114;0.0017;1.22;350
6564;446;0.0485;0.0114;0.0017;1.22;350
6566;446;0.0485;0.0114;0.0017;1.22;350
6568;446;0.0485;0.0114;0.0017;1.22;350
6570;446;0.0485;0.0114;0.0017;1.22;350
6572;446;0.0485;0.0114;0.0017;1.22;350
6574;446;0.0485;0.0114;0.0017;1.22;350
6576;446;0.0485;0.0114;0.0017;1.22;350
6578;446;0.0485;0.0114;0.0017;1.22;350
6580;446;0.0485;0.0114;0.0017;1.22;350
6582;446;0.0485;0.0114;0.0017;1.22;350
6584;446;0.0485;0.0114;0.0017;1.22;350
6586;446;0.0485;0.0114;0.0017;1.22;350
6588;446;0.0485;0.0114;0.0017;1.22;350
6590;446;0.0485;0.0114;0.0017;1.22;350
6592;446;0.0485;0.0114;0.0017;1.22;350
6594;446;0.0485;0.0114;0.0017;1.22;350
6596;446;0.0485;0.0114;0.0017;1.22;350
6598;446;0.0485;0.0114;0.0017;1.22;350
6600;446;0.0485;0.0114;0.0017;1.22;350
6602;446;0.0485;0.0114;0.0017;1.22;350
6604;447;0.0485;0.0114;0.0017;1.22;350
6606;447;0.0485;0.0114;0.0017;1.22;350
6608;447;0.0485;0.0114;0.0017;1.22;350
6610;447;0.0485;0.0114;0.0017;1.22;350
6612;447;0.0485;0.0114;0.0017;1.22;350
6614;447;0.0485;0.0114;0.0017;1.22;350
6616;447;0.0485;0.0114;0.0017;1.22;350
6618;447;0.0485;0.0114;0.0017;1.22;350
6620;447;0.0485;0.0114;0.0017;1.22;350
6622;447;0.0485;0.0114;0.0017;1.22;350
6624;447;0.0485;0.0114;0.0017;1.22;350
6626;447;0.0485;0.0114;0.0017;1.21;350
6628;447;0.0485;0.0114;0.0017;1.22;350
6630;447;0.0485;0.0114;0.0017;1.22;350
6632;447;0.0485;0.0114;0.0017;1.22;350
6634;447;0.0485;0.0114;0.0017;1.22;350
6636;447;0.0485;0.0114;0.0017;1.22;350
6638;447;0.0485;0.0114;0.0017;1.22;350
6640;447;0.0485;0.0114;0.0017;1.21;350
6642;447;0.0485;0.0114;0.0017;1.22;350
6644;447;0.0485;0.0114;0.0017;1.22;350
6646;447;0.0485;0.0114;0.0017;1.22;350
6648;447;0.0485;0.0114;0.0017;1.22;350
6650;447;0.0485;0.0114;0.0017;1.22;350
6652;447;0.0485;0.0114;0.0017;1.22;350
6654;447;0.0485;0.0114;0.0017;1.22;350
6656;447;0.0485;0.0114;0.0017;1.22;350
6658;447;0.0485;0.0114;0.0017;1.22;350
6660;447;0.0485;0.0114;0.0017;1.22;350
6662;447;0.0485;0.0114;0.0017;1.22;350
6664;447;0.0485;0.0114;0.0017;1.22;350
6666;447;0.0485;0.0114;0.0017;1.22;350
6668;447;0.0485;0.0114;0.0017;1.21;350
6670;447;0.0485;0.0114;0.0017;1.22;350
6672;447;0.0485;0.0114;0.0017;1.22;350
6674;447;0.0485;0.0114;0.0017;1.22;350
6676;447;0.0485;0.0114;0.0017;1.22;350
6678;447;0.0485;0.0114;0.0017;1.22;350
6680;447;0.0485;0.0114;0.0017;1.22;350
6682;447;0.0485;0.0114;0.0017;1.21;350
6684;447;0.0485;0.0114;0.0017;1.22;350
6686;447;0.0485;0.0114;0.0017;1.22;350
6688;447;0.0485;0.0114;0.0017;1.21;350
6690;447;0.0485;0.0114;0.0017;1.21;350
6692;447;0.0485;0.0114;0.0017;1.21;350
6694;447;0.0485;0.0114;0.0017;1.22;350
6696;447;0.0485;0.0114;0.0017;1.21;350
6698;447;0.0485;0.0114;0.0017;1.22;350
6700;447;0.0485;0.0114;0.0017;1.22;350
6702;447;0.0485;0.0114;0.0017;1.21;350
6704;447;0.0485;0.0114;0.0017;1.22;350
6706;447;0.0485;0.0114;0.0017;1.22;350
6708;447;0.0485;0.0114;0.0017;1.22;350
6710;447;0.0485;0.0114;0.0017;1.22;350
6712;447;0.0485;0.0114;0.0017;1.22;350
6714;447;0.0485;0.0114;0.0017;1.22;350
6716;447;0.0485;0.0114;0.0017;1.22;350
6718;447;0.0485;0.0114;0.0017;1.22;350
6720;447;0.0485;0.0114;0.0017;1.21;350
6722;447;0.0485;0.0114;0.0017;1.22;350
6724;447;0.0485;0.0114;0.0017;1.22;350
6726;447;0.0485;0.0114;0.0017;1.22;350
6728;447;0.0485;0.0114;0.0017;1.22;350
6730;447;0.0485;0.0114;0.0017;1.22;350
6732;447;0.0485;0.0114;0.0017;1.22;350
6734;448;0.0485;0.0114;0.0017;1.22;350
6736;448;0.0485;0.0114;0.0017;1.21;350
6738;448;0.0485;0.0114;0.0017;1.22;350
6740;448;0.0485;0.0114;0.0017;1.22;350
6742;448;0.0485;0.0114;0.0017;1.21;350
6744;448;0.0485;0.0114;0.0017;1.22;350
6746;448;0.0485;0.0114;0.0017;1.21;350
6748;448;0.0485;0.0114;0.0017;1.22;350
6750;448;0.0485;0.0114;0.0017;1.21;350
6752;448;0.0485;0.0114;0.0017;1.22;350
6754;448;0.0485;0.0114;0.0017;1.21;350
6756;448;0.0485;0.0114;0.0017;1.22;350
6758;448;0.0485;0.0114;0.0017;1.21;350
6760;448;0.0485;0.0114;0.0017;1.22;350
6762;448;0.0485;0.0114;0.0017;1.22;350
6764;448;0.0485;0.0114;0.0017;1.22;350
6766;448;0.0485;0.0114;0.0017;1.22;350
6768;448;0.0485;0.0114;0.0017;1.22;350
6770;448;0.0485;0.0114;0.0017;1.21;350
6772;448;0.0485;0.0114;0.0017;1.21;350
6774;448;0.0485;0.0114;0.0017;1.21;350
6776;448;0.0485;0.0114;0.0017;1.21;350
6778;448;0.0485;0.0114;0.0017;1.22;350
6780;448;0.0485;0.0114;0.0017;1.22;350
6782;448;0.0485;0.0114;0.0017;1.22;350
6784;448;0.0485;0.0114;0.0017;1.21;350
6786;448;0.0485;0.0114;0.0017;1.22;350
6788;448;0.0485;0.0114;0.0017;1.21;350
6790;448;0.0485;0.0114;0.0017;1.21;350
6792;448;0.0485;0.0114;0.0017;1.22;350
6794;448;0.0485;0.0114;0.0017;1.22;350
6796;448;0.0485;0.0114;0.0017;1.22;350
6798;448;0.0485;0.0114;0.0017;1.21;350
6800;448;0.0485;0.0114;0.0017;1.22;350
6802;448;0.0485;0.0114;0.0017;1.22;350
6804;448;0.0485;0.0114;0.0017;1.22;350
6806;448;0.0485;0.0114;0.0017;1.22;350
6808;448;0.0485;0.0114;0.0017;1.22;350
6810;448;0.0485;0.0114;0.0017;1.22;350
6812;448;0.0485;0.0114;0.0017;1.21;350
6814;448;0.0485;0.0114;0.0017;1.22;350
6816;448;0.0485;0.0114;0.0017;1.22;350
6818;448;0.0485;0.0114;0.0017;1.22;350
6820;448;0.0485;0.0114;0.0017;1.22;350
6822;448;0.0485;0.0114;0.0017;1.22;350
6824;448;0.0485;0.0114;0.0017;1.22;350
6826;448;0.0485;0.0114;0.0017;1.22;350
6828;448;0.0485;0.0114;0.0017;1.22;350
6830;448;0.0485;0.0114;0.0017;1.22;350
6832;448;0.0485;0.0114;0.0017;1.22;350
6834;448;0.0485;0.0114;0.0017;1.22;350
6836;448;0.0485;0.0114;0.0017;1.22;350
6838;448;0.0485;0.0114;0.0017;1.22;350
6840;448;0.0485;0.0114;0.0017;1.22;350
6842;448;0.0485;0.0114;0.0017;1.22;350
6844;448;0.0485;0.0114;0.0017;1.22;350
6846;448;0.0485;0.0114;0.0017;1.22;350
6848;448;0.0485;0.0114;0.0017;1.22;350
6850;448;0.0485;0.0114;0.0017;1.22;350
6852;448;0.0485;0.0114;0.0017;1.22;350
6854;448;0.0485;0.0114;0.0017;1.21;350
6856;448;0.0485;0.0114;0.0017;1.22;350
6858;448;0.0485;0.0114;0.0017;1.22;350
6860;448;0.0485;0.0114;0.0017;1.22;350
6862;448;0.0485;0.0114;0.0017;1.21;350
6864;448;0.0485;0.0114;0.0017;1.22;350
6866;449;0.0485;0.0114;0.0017;1.22;350
6868;449;0.0485;0.0114;0.0017;1.21;350
6870;449;0.0485;0.0114;0.0017;1.22;350
6872;449;0.0485;0.0114;0.0017;1.22;350
6874;449;0.0485;0.0114;0.0017;1.22;350
6876;449;0.0485;0.0114;0.0017;1.21;350
6878;449;0.0485;0.0114;0.0017;1.22;350
6880;449;0.0485;0.0114;0.0017;1.21;350
6882;449;0.0485;0.0114;0.0017;1.22;350
6884;449;0.0485;0.0114;0.0017;1.22;350
6886;449;0.0485;0.0114;0.0017;1.22;350
6888;449;0.0485;0.0114;0.0017;1.22;350
6890;449;0.0485;0.0114;0.0017;1.21;350
6892;449;0.0485;0.0114;0.0017;1.22;350
6894;449;0.0485;0.0114;0.0017;1.21;350
6896;449;0.0485;0.0114;0.0017;1.22;350
6898;449;0.0485;0.0114;0.0017;1.21;350
6900;449;0.0485;0.0114;0.0017;1.21;350
6902;449;0.0485;0.0114;0.0017;1.21;350
6904;449;0.0485;0.0114;0.0017;1.21;350
6906;449;0.0485;0.0114;0.0017;1.21;350
6908;449;0.0485;0.0114;0.0017;1.21;350
6910;449;0.0485;0.0114;0.0017;1.21;350
6912;449;0.0485;0.0114;0.0017;1.22;350
6914;449;0.0485;0.0114;0.0017;1.21;350
6916;449;0.0485;0.0114;0.0017;1.22;350
6918;449;0.0485;0.0114;0.0017;1.21;350
6920;449;0.0485;0.0114;0.0017;1.22;350
6922;449;0.0485;0.0114;0.0017;1.22;350
6924;449;0.0485;0.0114;0.0017;1.22;350
6926;449;0.0485;0.0114;0.0017;1.22;350
6928;449;0.0485;0.0114;0.0017;1.21;350
6930;449;0.0485;0.0114;0.0017;1.22;350
