Time [s];T_cat [gradC];n_h2 [mol/s];n_ch4 [mol/s];n_h2_res [mol/s];m_DE [kg/h];Pel [W]
0;445;0.0485;0.0114;0.00252;1.22;490
2;445;0.0484;0.0113;0.00252;0;490
4;445;0.0483;0.0113;0.00251;0;490
6;445;0.0482;0.0112;0.00251;0;350
8;444;0.0481;0.0112;0.0025;0;350
10;444;0.048;0.0111;0.0025;0;350
12;444;0.0479;0.0111;0.00249;0;350
14;444;0.0478;0.0110;0.00249;0;350
16;444;0.0477;0.0110;0.00248;0;350
18;444;0.0476;0.0109;0.00248;0;350
20;443;0.0475;0.0109;0.00247;0;350
22;443;0.0474;0.0108;0.00247;0;350
24;444;0.0473;0.0108;0.00246;0;350
26;444;0.0472;0.0108;0.00246;0;350
28;444;0.0471;0.0101;0.00245;0;350
30;444;0.047;0.0101;0.00245;0;350
32;444;0.0469;0.0101;0.00244;0;350
34;444;0.0468;0.0101;0.00244;0;448
36;444;0.0467;0.0100;0.00243;0;490
38;444;0.0466;0.0100;0.00243;0;490
40;445;0.0465;0.0100;0.00242;0;490
42;445;0.0464;0.0100;0.00242;0;490
44;445;0.0463;0.0100;0.00241;0;378
46;445;0.0462;0.0099;0.00241;0;350
48;446;0.0461;0.0099;0.0024;0;350
50;446;0.046;0.0099;0.0024;0;350
52;447;0.0459;0.0099;0.00239;0;350
54;447;0.0458;0.0099;0.00239;0;350
56;446;0.0457;0.0098;0.00238;0;350
58;447;0.0456;0.0098;0.00238;0;350
60;447;0.0455;0.0098;0.00237;0;350
62;448;0.0454;0.0098;0.00237;0;350
64;448;0.0452;0.0094;0.00265;0;350
66;449;0.0451;0.0094;0.00264;0;350
68;449;0.0451;0.0093;0.00262;0;350
70;449;0.0449;0.0093;0.00263;0;350
72;450;0.0449;0.0093;0.00261;0;350
74;450;0.0448;0.0093;0.00262;0;406
76;451;0.0446;0.0093;0.0026;0;490
78;451;0.0445;0.0092;0.00262;0;490
80;451;0.0444;0.0092;0.00259;0;490
82;452;0.0443;0.0092;0.0026;0;490
84;452;0.0442;0.0092;0.00258;0;420
86;453;0.0441;0.0091;0.00258;0;350
88;453;0.044;0.0091;0.00257;0;350
90;454;0.0439;0.0091;0.00256;0;350
92;453;0.0438;0.0091;0.00255;0;350
94;454;0.0437;0.0091;0.00254;0;350
96;455;0.0436;0.0091;0.00254;0;350
98;455;0.0435;0.0091;0.00252;0;350
100;456;0.0434;0.0090;0.00252;0;350
102;457;0.0433;0.0090;0.0025;0;350
104;456;0.0432;0.0090;0.00251;0;350
106;457;0.0431;0.0090;0.00248;0;350
108;458;0.043;0.0090;0.00248;0;350
110;458;0.0429;0.0090;0.00246;0;350
112;459;0.0428;0.0090;0.00244;0;350
114;459;0.0427;0.0089;0.00245;0;350
116;459;0.0426;0.0089;0.00243;0;476
118;460;0.0425;0.0089;0.00243;0;490
120;460;0.0424;0.0089;0.00241;0;490
122;461;0.0423;0.0089;0.00241;0;490
124;461;0.0422;0.0088;0.0024;0;490
126;462;0.0421;0.0088;0.00237;0;378
128;461;0.042;0.0088;0.00239;0;350
130;462;0.0419;0.0088;0.00237;0;350
132;462;0.0418;0.0088;0.00237;0;350
134;463;0.0417;0.0087;0.00237;0;350
136;463;0.0416;0.0088;0.00233;0;350
138;464;0.0415;0.0087;0.00235;0;350
140;463;0.0414;0.0087;0.00233;0;350
142;464;0.0413;0.0087;0.00232;0;350
144;464;0.0412;0.0086;0.00232;0;350
146;465;0.0411;0.0086;0.00232;0;350
148;465;0.041;0.0086;0.00231;0;350
150;466;0.0409;0.0086;0.0023;0;350
152;465;0.0408;0.0086;0.00228;0;350
154;465;0.0407;0.0085;0.00229;0;406
156;466;0.0405;0.0085;0.00228;0;490
158;466;0.0404;0.0085;0.00227;0;490
160;467;0.0403;0.0085;0.00224;0;490
162;467;0.0402;0.0085;0.00226;0;490
164;466;0.0401;0.0085;0.00226;0;420
166;467;0.04;0.0084;0.00224;0;350
168;467;0.0399;0.0084;0.00223;0;350
170;468;0.0398;0.0084;0.00222;0;350
172;468;0.0397;0.0084;0.00223;0;350
174;468;0.0396;0.0084;0.00222;0;350
176;468;0.0395;0.0084;0.00219;0;350
178;468;0.0394;0.0083;0.0022;0;350
180;468;0.0393;0.0083;0.0022;0;350
182;469;0.0392;0.0083;0.00218;0;350
184;469;0.0391;0.0083;0.00216;0;350
186;469;0.039;0.0082;0.00218;0;350
188;469;0.0389;0.0082;0.00216;0;350
190;469;0.0388;0.0082;0.00213;0;350
192;469;0.0387;0.0082;0.00214;0;434
194;470;0.0386;0.0082;0.00214;0;490
196;470;0.0385;0.0082;0.00213;0;490
198;470;0.0384;0.0081;0.00212;0;490
200;470;0.0383;0.0081;0.00211;0;490
202;470;0.0382;0.0081;0.00212;0;392
204;470;0.0381;0.0081;0.00211;0;350
206;471;0.038;0.0080;0.0021;0;350
208;471;0.0379;0.0080;0.00209;0;350
210;471;0.0378;0.0080;0.00206;0;350
212;471;0.0377;0.0080;0.00207;0;350
214;471;0.0376;0.0080;0.00208;0;350
216;471;0.0375;0.0079;0.00207;0;350
218;472;0.0374;0.0079;0.00206;0;350
220;472;0.0373;0.0079;0.00205;0;350
222;472;0.0372;0.0079;0.00203;0;406
224;471;0.0371;0.0079;0.00203;0;490
226;472;0.037;0.0078;0.00204;0;490
228;472;0.0369;0.0078;0.00204;0;490
230;472;0.0368;0.0078;0.00203;0;490
232;472;0.0367;0.0078;0.00203;0;420
234;472;0.0366;0.0077;0.00202;0;350
236;472;0.0365;0.0077;0.00201;0;350
238;472;0.0363;0.0077;0.00199;0;350
240;472;0.0362;0.0077;0.00198;0;350
242;472;0.0361;0.0077;0.00197;0;350
244;473;0.036;0.0077;0.00196;0;350
246;473;0.036;0.0077;0.00195;0;350
248;472;0.0358;0.0076;0.00195;0;350
250;472;0.0357;0.0076;0.00194;0;350
252;473;0.0356;0.0076;0.00194;0;350
254;473;0.0355;0.0076;0.00193;0;350
256;473;0.0354;0.0075;0.00193;0;350
258;473;0.0353;0.0075;0.00192;0;350
260;473;0.0352;0.0075;0.00191;0;378
262;473;0.0351;0.0075;0.00191;0;490
264;473;0.035;0.0075;0.00189;0;490
266;473;0.0349;0.0074;0.00188;0;490
268;473;0.0348;0.0074;0.00187;0;490
270;474;0.0347;0.0074;0.00186;0;448
272;473;0.0346;0.0074;0.00187;0;350
274;473;0.0345;0.0073;0.00187;0;350
276;473;0.0344;0.0073;0.00187;0;350
278;473;0.0343;0.0073;0.00185;0;350
280;473;0.0342;0.0073;0.00185;0;350
282;473;0.0341;0.0073;0.00183;0;350
284;472;0.034;0.0073;0.00182;0;350
286;473;0.0339;0.0072;0.00182;0;350
288;473;0.0338;0.0072;0.0018;0;350
290;473;0.0337;0.0072;0.0018;0;350
292;473;0.0336;0.0072;0.0018;0;350
294;473;0.0335;0.0071;0.0018;0;350
296;472;0.0334;0.0071;0.0018;0;378
298;472;0.0333;0.0071;0.00178;0;490
300;473;0.0332;0.0071;0.00177;0;490
302;473;0.0331;0.0071;0.00176;0;490
304;473;0.033;0.0071;0.00175;0;490
306;473;0.0329;0.0070;0.00175;0;462
308;472;0.0328;0.0070;0.00175;0;350
310;473;0.0327;0.0070;0.00175;0;350
312;473;0.0326;0.0069;0.00174;0;350
314;473;0.0325;0.0069;0.00173;0;350
316;473;0.0324;0.0069;0.00172;0;350
318;473;0.0323;0.0069;0.0017;0;350
320;473;0.0322;0.0069;0.0017;0;350
322;473;0.0321;0.0069;0.00169;0;350
324;473;0.0319;0.0068;0.00169;0;350
326;473;0.0318;0.0068;0.00169;0;350
328;473;0.0317;0.0068;0.00168;0;350
330;473;0.0316;0.0068;0.00167;0;364
332;472;0.0315;0.0068;0.00166;0;490
334;472;0.0314;0.0067;0.00164;0;490
336;472;0.0313;0.0067;0.00163;0;490
338;472;0.0312;0.0067;0.00163;0;490
340;472;0.0311;0.0067;0.00164;0;476
342;472;0.031;0.0066;0.00163;0;350
344;471;0.0309;0.0066;0.00162;0;350
346;471;0.0308;0.0066;0.00161;0;350
348;471;0.0307;0.0066;0.0016;0;350
350;471;0.0306;0.0066;0.0016;0;350
352;471;0.0305;0.0065;0.0016;0;350
354;471;0.0304;0.0065;0.0016;0;350
356;471;0.0303;0.0065;0.00159;0;350
358;471;0.0302;0.0065;0.00158;0;350
360;471;0.0301;0.0064;0.00156;0;350
362;471;0.03;0.0064;0.00157;0;350
364;471;0.0299;0.0064;0.00156;0;420
366;471;0.0298;0.0064;0.00156;0;490
368;471;0.0297;0.0064;0.00154;0;490
370;471;0.0296;0.0063;0.00153;0;490
372;471;0.0295;0.0063;0.00153;0;490
374;471;0.0294;0.0063;0.00153;0;420
376;471;0.0293;0.0063;0.00152;0;350
378;471;0.0292;0.0062;0.00151;0;350
380;471;0.0291;0.0062;0.0015;0;350
382;471;0.029;0.0062;0.00149;0;350
384;471;0.0289;0.0062;0.00149;0;350
386;471;0.0288;0.0062;0.00149;0;350
388;471;0.0287;0.0061;0.00149;0;350
390;471;0.0286;0.0061;0.00148;0;350
392;471;0.0285;0.0061;0.00147;0;350
394;471;0.0284;0.0061;0.00145;0;350
396;471;0.0283;0.0061;0.00145;0;350
398;471;0.0282;0.0060;0.00145;0;350
400;471;0.0281;0.0060;0.00144;0;490
402;471;0.028;0.0060;0.00143;0;490
404;471;0.0279;0.0060;0.00142;0;490
406;471;0.0278;0.0060;0.00141;0;490
408;471;0.0277;0.0059;0.00141;0;490
410;471;0.0276;0.0059;0.0014;0;350
412;470;0.0275;0.0059;0.00139;0;350
414;470;0.0273;0.0059;0.00138;0;350
416;470;0.0272;0.0058;0.00138;0;350
418;470;0.0271;0.0058;0.00138;0;350
420;470;0.027;0.0058;0.00137;0;350
422;470;0.0269;0.0058;0.00135;0;350
424;470;0.0268;0.0058;0.00134;0;350
426;470;0.0267;0.0057;0.00135;0;350
428;470;0.0266;0.0057;0.00134;0;350
430;470;0.0265;0.0057;0.00133;0;350
432;470;0.0264;0.0057;0.00132;0;406
434;469;0.0263;0.0056;0.00131;0;490
436;469;0.0262;0.0056;0.00131;0;490
438;469;0.0261;0.0056;0.00131;0;490
440;469;0.026;0.0056;0.0013;0;490
442;469;0.0259;0.0056;0.00129;0;420
444;469;0.0258;0.0055;0.00129;0;350
446;469;0.0257;0.0055;0.00129;0;350
448;469;0.0256;0.0055;0.00128;0;350
450;468;0.0255;0.0055;0.00127;0;350
452;468;0.0254;0.0054;0.00128;0;350
454;468;0.0253;0.0054;0.00128;0;350
456;468;0.0252;0.0054;0.00126;0;350
458;468;0.0251;0.0054;0.00125;0;350
460;468;0.025;0.0053;0.00126;0;420
462;467;0.0249;0.0053;0.00125;0;490
464;467;0.0248;0.0053;0.00123;0;490
466;467;0.0247;0.0053;0.00124;0;490
468;467;0.0246;0.0053;0.00122;0;490
470;467;0.0245;0.0052;0.00121;0;420
472;466;0.0244;0.0052;0.00121;0;350
474;466;0.0243;0.0052;0.0012;0;350
476;466;0.0242;0.0052;0.00118;0;350
478;466;0.0241;0.0052;0.00118;0;350
480;465;0.024;0.0051;0.00117;0;350
482;465;0.0239;0.0051;0.00116;0;350
484;465;0.0238;0.0051;0.00114;0;350
486;465;0.0237;0.0051;0.00115;0;350
488;465;0.0236;0.0050;0.00114;0;350
490;464;0.0235;0.0050;0.00113;0;350
492;464;0.0234;0.0050;0.00112;0;350
494;464;0.0233;0.0050;0.00113;0;350
496;464;0.0232;0.0049;0.00113;0;420
498;463;0.023;0.0049;0.00112;0;490
500;463;0.023;0.0049;0.0011;0;490
502;463;0.0228;0.0049;0.00111;0;490
504;463;0.0227;0.0048;0.0011;0;490
506;462;0.0226;0.0048;0.0011;0;420
508;462;0.0225;0.0048;0.00108;0;350
510;462;0.0224;0.0048;0.00109;0;350
512;462;0.0223;0.0048;0.00108;0;350
514;461;0.0222;0.0047;0.00106;0;350
516;461;0.0221;0.0047;0.00106;0;350
518;461;0.022;0.0047;0.00106;0;350
520;460;0.0219;0.0047;0.00105;0;350
522;460;0.0218;0.0046;0.00104;0;350
524;460;0.0217;0.0046;0.00105;0;350
526;459;0.0216;0.0046;0.00104;0;448
528;459;0.0215;0.0046;0.00103;0;490
530;459;0.0214;0.0046;0.00103;0;490
532;458;0.0213;0.0045;0.00103;0;490
534;458;0.0212;0.0045;0.00102;0;490
536;458;0.0211;0.0045;0.00101;0;392
538;457;0.021;0.0045;0.00101;0;350
540;457;0.0209;0.0044;0.001;0;350
542;457;0.0208;0.0044;0.000982;0;350
544;456;0.0207;0.0044;0.00098;0;350
546;456;0.0206;0.0044;0.000973;0;350
548;455;0.0205;0.0044;0.000959;0;350
550;455;0.0204;0.0043;0.000952;0;350
552;455;0.0203;0.0043;0.000953;0;350
554;454;0.0202;0.0043;0.00094;0;350
556;454;0.0201;0.0043;0.000927;0;350
558;453;0.02;0.0042;0.000931;0;350
560;453;0.0199;0.0042;0.00092;0;490
562;453;0.0198;0.0042;0.000912;0;490
564;452;0.0198;0.0047;0.000299;0.428;350
566;452;0.0198;0.0051;0.000299;0.428;350
568;451;0.0199;0.0047;0.000299;0.856;350
570;451;0.0199;0.0048;0.0003;0.845;350
572;451;0.02;0.0048;0.000301;0.86;350
574;451;0.0201;0.0048;0.000302;0.87;350
576;451;0.0201;0.0048;0.000303;0.869;350
578;451;0.0202;0.0048;0.000304;0.869;350
580;451;0.0202;0.0048;0.000305;0.872;350
582;451;0.0203;0.0049;0.000306;0.877;350
584;451;0.0204;0.0049;0.000306;0.884;350
586;451;0.0204;0.0049;0.000307;0.883;350
588;451;0.0205;0.0049;0.000308;0.889;350
590;451;0.0206;0.0049;0.000309;0.891;350
592;451;0.0206;0.0049;0.00031;0.892;350
594;450;0.0207;0.0050;0.000311;0.896;350
596;450;0.0207;0.0050;0.000312;0.894;350
598;450;0.0208;0.0050;0.000313;0.897;350
600;449;0.0209;0.0050;0.000314;0.895;350
602;448;0.0209;0.0050;0.000315;0.892;350
604;447;0.021;0.0050;0.000316;0.894;350
606;447;0.021;0.0051;0.000317;0.891;350
608;447;0.0211;0.0051;0.000318;0.891;350
610;447;0.0212;0.0051;0.000318;0.888;350
612;447;0.0212;0.0051;0.000319;0.883;350
614;448;0.0213;0.0051;0.00032;0.882;350
616;448;0.0214;0.0051;0.000321;0.879;350
618;448;0.0214;0.0052;0.000322;0.883;350
620;449;0.0215;0.0052;0.000323;0.882;350
622;449;0.0215;0.0052;0.000324;0.88;350
624;449;0.0216;0.0052;0.000325;0.882;350
626;449;0.0217;0.0052;0.000326;0.881;350
628;450;0.0217;0.0052;0.000327;0.885;350
630;450;0.0218;0.0053;0.000328;0.885;350
632;449;0.0218;0.0053;0.000328;0.884;350
634;449;0.0219;0.0053;0.000329;0.887;350
636;449;0.022;0.0053;0.00033;0.884;350
638;449;0.022;0.0053;0.000331;0.888;350
640;449;0.0221;0.0053;0.000332;0.885;350
642;448;0.0221;0.0054;0.000333;0.886;350
644;448;0.0222;0.0054;0.000334;0.892;350
646;448;0.0223;0.0054;0.000335;0.892;350
648;448;0.0223;0.0054;0.000336;0.896;350
650;448;0.0224;0.0054;0.000337;0.899;350
652;447;0.0225;0.0054;0.000338;0.899;350
654;447;0.0225;0.0055;0.000339;0.903;350
656;447;0.0226;0.0055;0.00034;0.902;350
658;447;0.0226;0.0055;0.00034;0.907;350
660;447;0.0227;0.0055;0.000341;0.908;350
662;447;0.0228;0.0055;0.000342;0.909;350
664;447;0.0228;0.0055;0.000343;0.912;350
666;447;0.0229;0.0056;0.000344;0.912;350
668;447;0.0229;0.0056;0.000345;0.916;350
670;447;0.023;0.0056;0.000346;0.917;350
672;447;0.0231;0.0056;0.000347;0.919;350
674;447;0.0231;0.0056;0.000348;0.924;350
676;447;0.0232;0.0056;0.000349;0.927;350
678;447;0.0233;0.0057;0.00035;0.932;350
680;447;0.0233;0.0057;0.00035;0.933;350
682;447;0.0234;0.0057;0.000351;0.935;350
684;447;0.0234;0.0057;0.000352;0.94;350
686;447;0.0235;0.0057;0.000353;0.94;350
688;447;0.0236;0.0057;0.000354;0.945;350
690;447;0.0236;0.0057;0.000355;0.945;350
692;447;0.0237;0.0058;0.000356;0.949;350
694;448;0.0237;0.0058;0.000357;0.955;350
696;448;0.0238;0.0058;0.000358;0.955;350
698;448;0.0239;0.0058;0.000359;0.96;350
700;448;0.0239;0.0058;0.00036;0.962;350
702;448;0.024;0.0059;0.000361;0.968;350
704;448;0.0241;0.0059;0.000361;0.972;350
706;448;0.0241;0.0059;0.000362;0.974;350
708;449;0.0242;0.0059;0.000363;0.979;350
710;449;0.0242;0.0059;0.000364;0.982;350
712;449;0.0243;0.0059;0.000365;0.985;350
714;449;0.0244;0.0060;0.000366;0.989;350
716;449;0.0244;0.0060;0.000367;0.991;350
718;450;0.0245;0.0060;0.000368;0.995;350
720;450;0.0245;0.0060;0.000369;0.995;350
722;450;0.0246;0.0060;0.00037;0.997;350
724;450;0.0247;0.0060;0.000371;1;350
726;450;0.0247;0.0061;0.000372;1;350
728;451;0.0248;0.0061;0.000372;1.01;350
730;451;0.0248;0.0061;0.000373;1.01;350
732;451;0.0249;0.0061;0.000374;1.01;350
734;451;0.025;0.0061;0.000375;1.02;350
736;451;0.025;0.0061;0.000376;1.01;350
738;452;0.0251;0.0061;0.000377;1.02;350
740;452;0.0252;0.0062;0.000378;1.02;350
742;452;0.0252;0.0062;0.000379;1.02;350
744;452;0.0253;0.0062;0.00038;1.03;350
746;453;0.0253;0.0062;0.000381;1.03;350
748;453;0.0254;0.0062;0.000382;1.03;350
750;453;0.0255;0.0062;0.000383;1.03;350
752;453;0.0255;0.0063;0.000383;1.04;350
754;453;0.0256;0.0063;0.000384;1.04;350
756;454;0.0257;0.0063;0.000385;1.04;350
758;454;0.0257;0.0063;0.000386;1.05;350
760;454;0.0258;0.0063;0.000387;1.05;350
762;454;0.0258;0.0063;0.000388;1.05;350
764;454;0.0259;0.0064;0.000389;1.06;350
766;454;0.026;0.0064;0.00039;1.06;350
768;454;0.026;0.0064;0.000391;1.06;350
770;454;0.0261;0.0064;0.000392;1.06;350
772;454;0.0261;0.0064;0.000393;1.07;350
774;454;0.0262;0.0064;0.000394;1.07;350
776;455;0.0263;0.0065;0.000394;1.07;350
778;455;0.0263;0.0065;0.000395;1.08;350
780;455;0.0264;0.0065;0.000396;1.08;350
782;455;0.0264;0.0065;0.000397;1.08;350
784;455;0.0265;0.0065;0.000398;1.08;350
786;455;0.0266;0.0065;0.000399;1.08;350
788;455;0.0266;0.0066;0.0004;1.09;350
790;455;0.0267;0.0066;0.000401;1.09;350
792;455;0.0268;0.0066;0.000402;1.09;350
794;456;0.0268;0.0066;0.000403;1.09;350
796;456;0.0269;0.0066;0.000404;1.09;350
798;456;0.0269;0.0066;0.000404;1.09;350
800;456;0.027;0.0067;0.000405;1.08;350
802;456;0.0271;0.0067;0.000406;1.08;350
804;456;0.0271;0.0067;0.000407;1.08;350
806;457;0.0272;0.0067;0.000408;1.08;350
808;457;0.0272;0.0067;0.000409;1.08;350
810;457;0.0273;0.0067;0.00041;1.07;350
812;457;0.0274;0.0068;0.000411;1.07;350
814;457;0.0274;0.0068;0.000412;1.06;350
816;457;0.0275;0.0068;0.000413;1.06;350
818;458;0.0275;0.0068;0.000414;1.06;350
820;458;0.0276;0.0068;0.000415;1.06;350
822;458;0.0277;0.0068;0.000415;1.06;350
824;458;0.0277;0.0069;0.000416;1.06;350
826;457;0.0278;0.0069;0.000417;1.05;350
828;457;0.0279;0.0069;0.000418;1.06;350
830;457;0.0279;0.0069;0.000419;1.05;350
832;457;0.028;0.0069;0.00042;1.06;350
834;457;0.028;0.0069;0.000421;1.05;350
836;456;0.0281;0.0070;0.000422;1.05;350
838;456;0.0282;0.0070;0.000423;1.06;350
840;456;0.0282;0.0070;0.000424;1.05;350
842;455;0.0283;0.0070;0.000425;1.06;350
844;455;0.0284;0.0070;0.000426;1.06;350
846;454;0.0284;0.0070;0.000426;1.06;350
848;454;0.0285;0.0071;0.000427;1.06;350
850;453;0.0285;0.0071;0.000428;1.06;350
852;453;0.0286;0.0071;0.000429;1.06;350
854;452;0.0287;0.0071;0.00043;1.06;350
856;452;0.0287;0.0071;0.000431;1.07;350
858;452;0.0288;0.0071;0.000432;1.07;350
860;451;0.0288;0.0072;0.000433;1.07;350
862;451;0.0289;0.0072;0.000434;1.07;350
864;451;0.029;0.0072;0.000435;1.07;350
866;451;0.029;0.0072;0.000436;1.08;350
868;451;0.0291;0.0072;0.000436;1.09;350
870;450;0.0291;0.0072;0.000437;1.09;350
872;450;0.0292;0.0072;0.000438;1.09;350
874;450;0.0293;0.0073;0.000439;1.09;350
876;450;0.0293;0.0073;0.00044;1.09;350
878;450;0.0294;0.0073;0.000441;1.1;350
880;450;0.0295;0.0073;0.000442;1.09;350
882;450;0.0295;0.0073;0.000443;1.1;350
884;450;0.0296;0.0073;0.000444;1.1;350
886;450;0.0296;0.0074;0.000445;1.1;350
888;450;0.0297;0.0074;0.000446;1.11;350
890;450;0.0298;0.0074;0.000446;1.11;350
892;450;0.0298;0.0074;0.000447;1.11;350
894;450;0.0299;0.0074;0.000448;1.11;350
896;450;0.0299;0.0075;0.000449;1.11;350
898;450;0.03;0.0075;0.00045;1.12;350
900;450;0.0301;0.0075;0.000451;1.12;350
902;450;0.0301;0.0075;0.000452;1.12;350
904;450;0.0302;0.0075;0.000453;1.12;350
906;450;0.0303;0.0075;0.000454;1.13;350
908;450;0.0303;0.0075;0.000455;1.13;350
910;451;0.0304;0.0076;0.000456;1.13;350
912;451;0.0304;0.0076;0.000457;1.13;350
914;451;0.0305;0.0076;0.000458;1.13;350
916;451;0.0306;0.0076;0.000458;1.14;350
918;451;0.0306;0.0076;0.000459;1.14;350
920;451;0.0307;0.0076;0.00046;1.14;350
922;451;0.0307;0.0077;0.000461;1.15;350
924;451;0.0308;0.0077;0.000462;1.14;350
926;452;0.0309;0.0077;0.000463;1.15;350
928;452;0.0309;0.0077;0.000464;1.15;350
930;452;0.031;0.0077;0.000465;1.15;350
932;452;0.0311;0.0077;0.000466;1.15;350
934;452;0.0311;0.0078;0.000467;1.15;350
936;452;0.0312;0.0078;0.000468;1.16;350
938;452;0.0312;0.0078;0.000468;1.16;350
940;452;0.0313;0.0078;0.000469;1.16;350
942;452;0.0314;0.0078;0.00047;1.17;350
944;452;0.0314;0.0078;0.000471;1.17;350
946;452;0.0315;0.0079;0.000472;1.17;350
948;452;0.0315;0.0079;0.000473;1.17;350
950;452;0.0316;0.0079;0.000474;1.18;350
952;452;0.0317;0.0079;0.000475;1.18;350
954;452;0.0317;0.0079;0.000476;1.18;350
956;452;0.0318;0.0079;0.000477;1.19;350
958;453;0.0318;0.0080;0.000478;1.19;350
960;453;0.0319;0.0080;0.000479;1.19;350
962;453;0.032;0.0080;0.000479;1.19;350
964;453;0.032;0.0080;0.00048;1.2;350
966;453;0.0321;0.0080;0.000481;1.2;350
968;453;0.0322;0.0080;0.000482;1.2;350
970;453;0.0322;0.0081;0.000483;1.2;350
972;453;0.0323;0.0081;0.000484;1.21;350
974;453;0.0323;0.0081;0.000485;1.21;350
976;453;0.0324;0.0081;0.000486;1.22;350
978;453;0.0325;0.0081;0.000487;1.22;350
980;453;0.0325;0.0081;0.000488;1.22;350
982;453;0.0326;0.0082;0.000488;1.23;350
984;453;0.0326;0.0082;0.000489;1.23;350
986;453;0.0327;0.0082;0.00049;1.24;350
988;454;0.0328;0.0082;0.000491;1.24;350
990;454;0.0328;0.0082;0.000492;1.24;350
992;454;0.0329;0.0082;0.000493;1.24;350
994;454;0.033;0.0083;0.000494;1.24;350
996;454;0.033;0.0083;0.000495;1.25;350
998;454;0.0331;0.0083;0.000496;1.25;350
1000;454;0.0331;0.0083;0.000497;1.25;350
1002;454;0.0332;0.0083;0.000498;1.26;350
1004;455;0.0333;0.0083;0.000498;1.26;350
1006;455;0.0333;0.0083;0.000499;1.26;350
1008;455;0.0334;0.0084;0.0005;1.26;350
1010;455;0.0334;0.0084;0.000501;1.26;350
1012;455;0.0335;0.0084;0.000502;1.27;350
1014;455;0.0336;0.0084;0.000503;1.27;350
1016;455;0.0336;0.0084;0.000504;1.27;350
1018;456;0.0337;0.0077;0.00133;1.27;350
1020;456;0.0338;0.0077;0.00133;1.28;350
1022;456;0.0338;0.0077;0.00133;1.28;350
1024;456;0.0339;0.0077;0.00133;1.28;350
1026;456;0.0339;0.0078;0.00134;1.29;350
1028;456;0.034;0.0078;0.00134;1.29;350
1030;456;0.0341;0.0078;0.00134;1.29;350
1032;456;0.0341;0.0078;0.00135;1.29;350
1034;456;0.0342;0.0078;0.00135;1.29;350
1036;456;0.0342;0.0078;0.00135;1.3;350
1038;456;0.0343;0.0078;0.00135;1.3;350
1040;457;0.0344;0.0079;0.00133;1.3;350
1042;457;0.0344;0.0079;0.00133;1.3;350
1044;457;0.0345;0.0079;0.00132;1.31;350
1046;457;0.0345;0.0080;0.0013;1.31;350
1048;457;0.0346;0.0080;0.00128;1.31;350
1050;457;0.0347;0.0080;0.00126;1.32;350
1052;457;0.0347;0.0081;0.00124;1.32;350
1054;457;0.0348;0.0081;0.00124;1.32;350
1056;457;0.0349;0.0081;0.00122;1.32;350
1058;457;0.0349;0.0082;0.00121;1.32;350
1060;457;0.035;0.0082;0.00119;1.33;350
1062;457;0.035;0.0082;0.00117;1.33;350
1064;457;0.0351;0.0083;0.00115;1.33;350
1066;457;0.0352;0.0083;0.00114;1.34;350
1068;457;0.0352;0.0083;0.00112;1.34;350
1070;457;0.0353;0.0084;0.00112;1.34;350
1072;457;0.0353;0.0084;0.0011;1.34;350
1074;457;0.0354;0.0084;0.00109;1.35;350
1076;457;0.0355;0.0084;0.00107;1.35;350
1078;457;0.0355;0.0085;0.00104;1.35;350
1080;457;0.0356;0.0085;0.00104;1.35;350
1082;458;0.0357;0.0085;0.00103;1.35;350
1084;458;0.0357;0.0086;0.00101;1.35;350
1086;458;0.0358;0.0086;0.000993;1.36;350
1088;458;0.0358;0.0086;0.000984;1.36;350
1090;458;0.0359;0.0087;0.000969;1.37;350
1092;458;0.036;0.0087;0.000961;1.36;350
1094;458;0.036;0.0087;0.000946;1.36;350
1096;458;0.0361;0.0087;0.000932;1.37;350
1098;458;0.0361;0.0088;0.000917;1.37;350
1100;458;0.0362;0.0088;0.000903;1.37;350
1102;458;0.0363;0.0088;0.000881;1.37;350
1104;458;0.0363;0.0089;0.000885;1.38;350
1106;458;0.0364;0.0089;0.000887;1.38;350
1108;458;0.0365;0.0089;0.000883;1.37;350
1110;458;0.0365;0.0089;0.000869;1.38;350
1112;458;0.0366;0.0089;0.000868;1.38;350
1114;458;0.0366;0.0090;0.000854;1.38;350
1116;458;0.0367;0.0090;0.000853;1.38;350
1118;458;0.0368;0.0090;0.000845;1.38;350
1120;458;0.0368;0.0090;0.000835;1.39;350
1122;458;0.0369;0.0091;0.000841;1.39;350
1124;458;0.0369;0.0091;0.000836;1.39;350
1126;458;0.037;0.0091;0.000828;1.39;350
1128;458;0.0371;0.0091;0.000829;1.39;350
1130;458;0.0371;0.0091;0.000824;1.39;350
1132;458;0.0372;0.0091;0.000833;1.4;350
1134;458;0.0372;0.0092;0.00083;1.4;350
1136;457;0.0373;0.0092;0.00082;1.4;350
1138;457;0.0374;0.0092;0.000809;1.4;350
1140;457;0.0374;0.0092;0.000817;1.4;350
1142;457;0.0375;0.0092;0.000814;1.4;350
1144;457;0.0376;0.0093;0.000814;1.41;350
1146;457;0.0376;0.0093;0.00082;1.41;350
1148;457;0.0377;0.0093;0.000818;1.41;350
1150;457;0.0377;0.0093;0.000816;1.41;350
1152;457;0.0378;0.0093;0.000811;1.41;350
1154;457;0.0379;0.0094;0.000808;1.41;350
1156;457;0.0379;0.0094;0.000811;1.42;350
1158;457;0.038;0.0094;0.000817;1.42;350
1160;457;0.038;0.0094;0.00082;1.42;350
1162;457;0.0381;0.0094;0.000834;1.43;350
1164;456;0.0382;0.0094;0.000826;1.43;350
1166;456;0.0382;0.0094;0.000832;1.43;350
1168;456;0.0383;0.0094;0.000834;1.42;350
1170;456;0.0384;0.0095;0.000829;1.43;350
1172;456;0.0384;0.0095;0.000823;1.42;350
1174;456;0.0385;0.0095;0.000831;1.43;350
1176;456;0.0385;0.0095;0.00084;1.42;350
1178;456;0.0386;0.0095;0.00085;1.43;350
1180;456;0.0387;0.0095;0.000848;1.43;350
1182;456;0.0387;0.0096;0.000845;1.43;350
1184;456;0.0388;0.0096;0.000842;1.43;350
1186;456;0.0388;0.0096;0.000833;1.43;350
1188;456;0.0389;0.0096;0.000851;1.44;350
1190;456;0.039;0.0096;0.000861;1.44;350
1192;455;0.039;0.0096;0.000864;1.44;350
1194;455;0.0391;0.0096;0.000866;1.44;350
1196;455;0.0392;0.0097;0.000853;1.44;350
1198;455;0.0392;0.0097;0.000866;1.45;350
1200;455;0.0393;0.0097;0.000857;1.44;350
1202;455;0.0393;0.0097;0.000869;1.45;350
1204;455;0.0394;0.0097;0.000864;1.45;350
1206;455;0.0395;0.0097;0.000876;1.45;350
1208;455;0.0395;0.0098;0.000865;1.46;350
1210;455;0.0396;0.0098;0.000873;1.45;350
1212;455;0.0396;0.0098;0.000872;1.46;350
1214;455;0.0397;0.0098;0.000865;1.46;350
1216;454;0.0398;0.0098;0.000883;1.46;350
1218;454;0.0398;0.0098;0.000882;1.46;350
1220;454;0.0399;0.0098;0.000889;1.46;350
1222;454;0.04;0.0099;0.000889;1.47;350
1224;454;0.04;0.0099;0.000895;1.47;350
1226;454;0.0401;0.0099;0.000878;1.47;350
1228;454;0.0401;0.0099;0.000905;1.47;350
1230;454;0.0402;0.0099;0.000913;1.47;350
1232;454;0.0403;0.0099;0.000917;1.47;350
1234;454;0.0403;0.0099;0.000921;1.48;350
1236;454;0.0404;0.0099;0.000923;1.48;350
1238;454;0.0404;0.0100;0.000922;1.48;350
1240;454;0.0405;0.0100;0.000928;1.48;350
1242;454;0.0406;0.0100;0.000928;1.48;350
1244;454;0.0406;0.0100;0.000928;1.48;350
1246;454;0.0407;0.0100;0.000929;1.48;350
1248;454;0.0407;0.0100;0.000927;1.49;350
1250;453;0.0408;0.0101;0.000933;1.48;350
1252;453;0.0409;0.0101;0.000938;1.49;350
1254;453;0.0409;0.0101;0.000934;1.49;350
1256;453;0.041;0.0101;0.000928;1.49;350
1258;453;0.0411;0.0101;0.000929;1.49;350
1260;453;0.0411;0.0101;0.000945;1.49;350
1262;453;0.0412;0.0101;0.000952;1.49;350
1264;453;0.0412;0.0102;0.000948;1.49;350
1266;453;0.0413;0.0102;0.000954;1.49;350
1268;453;0.0414;0.0102;0.000962;1.49;350
1270;453;0.0414;0.0102;0.000951;1.5;350
1272;453;0.0415;0.0102;0.000948;1.5;350
1274;453;0.0415;0.0102;0.000965;1.5;350
1276;453;0.0416;0.0102;0.000969;1.5;350
1278;453;0.0417;0.0103;0.000954;1.5;350
1280;453;0.0417;0.0103;0.000965;1.5;350
1282;452;0.0418;0.0103;0.000972;1.51;350
1284;452;0.0419;0.0103;0.000971;1.5;350
1286;452;0.0419;0.0103;0.000968;1.5;350
1288;452;0.042;0.0103;0.000977;1.5;350
1290;452;0.042;0.0103;0.000994;1.51;350
1292;452;0.0421;0.0104;0.000986;1.51;350
1294;452;0.0422;0.0104;0.001;1.51;350
1296;452;0.0422;0.0104;0.00101;1.51;350
1298;452;0.0423;0.0104;0.00101;1.51;350
1300;452;0.0423;0.0104;0.000996;1.51;350
1302;451;0.0424;0.0104;0.00102;1.52;350
1304;451;0.0425;0.0104;0.00103;1.52;350
1306;451;0.0425;0.0105;0.00102;1.52;350
1308;451;0.0426;0.0104;0.00104;1.52;350
1310;451;0.0427;0.0105;0.00104;1.52;350
1312;451;0.0427;0.0105;0.00103;1.52;350
1314;451;0.0428;0.0105;0.00105;1.52;350
1316;451;0.0428;0.0105;0.00105;1.52;350
1318;451;0.0429;0.0105;0.00104;1.52;350
1320;450;0.043;0.0105;0.00106;1.52;350
1322;450;0.043;0.0105;0.00107;1.52;350
1324;450;0.0431;0.0106;0.00105;1.52;350
1326;450;0.0431;0.0106;0.00106;1.52;350
1328;450;0.0432;0.0106;0.00106;1.52;350
1330;450;0.0433;0.0106;0.00106;1.53;350
1332;450;0.0433;0.0107;0.00103;1.53;350
1334;450;0.0434;0.0107;0.00105;1.53;350
1336;450;0.0435;0.0107;0.00106;1.53;350
1338;449;0.0435;0.0107;0.00106;1.53;350
1340;449;0.0436;0.0107;0.00107;1.53;350
1342;449;0.0436;0.0107;0.00107;1.53;350
1344;449;0.0437;0.0107;0.00106;1.53;350
1346;449;0.0438;0.0107;0.00108;1.53;350
1348;449;0.0438;0.0107;0.00109;1.53;350
1350;449;0.0439;0.0108;0.00108;1.54;350
1352;449;0.0439;0.0108;0.0011;1.53;350
1354;448;0.044;0.0108;0.00109;1.53;350
1356;448;0.0441;0.0108;0.0011;1.53;350
1358;448;0.0441;0.0108;0.00111;1.53;350
1360;448;0.0442;0.0109;0.0011;1.53;350
1362;448;0.0442;0.0109;0.00112;1.53;350
1364;448;0.0443;0.0109;0.00111;1.54;350
1366;448;0.0444;0.0109;0.0011;1.54;350
1368;447;0.0444;0.0109;0.00112;1.53;350
1370;447;0.0445;0.0109;0.00112;1.54;350
1372;447;0.0446;0.0109;0.0011;1.53;350
1374;447;0.0446;0.0110;0.00111;1.54;350
1376;447;0.0447;0.0110;0.00113;1.54;350
1378;447;0.0447;0.0110;0.00113;1.54;350
1380;447;0.0448;0.0110;0.00113;1.54;350
1382;446;0.0449;0.0110;0.00114;1.54;350
1384;446;0.0449;0.0110;0.00114;1.54;350
1386;446;0.045;0.0110;0.00113;1.53;350
1388;446;0.045;0.0110;0.00114;1.54;350
1390;446;0.0451;0.0110;0.00114;1.54;350
1392;446;0.0452;0.0111;0.00113;1.54;350
1394;446;0.0452;0.0111;0.00115;1.54;350
1396;446;0.0453;0.0111;0.00115;1.54;350
1398;445;0.0454;0.0111;0.00115;1.54;350
1400;445;0.0454;0.0111;0.00116;1.54;350
1402;445;0.0455;0.0111;0.00115;1.54;350
1404;445;0.0455;0.0111;0.00117;1.55;350
1406;445;0.0456;0.0111;0.00117;1.54;350
1408;445;0.0457;0.0111;0.00118;1.54;350
1410;444;0.0457;0.0112;0.00118;1.54;350
1412;444;0.0458;0.0112;0.00117;1.54;350
1414;444;0.0458;0.0112;0.00118;1.54;350
1416;444;0.0459;0.0112;0.0012;1.54;350
1418;444;0.046;0.0112;0.00119;1.54;350
1420;444;0.046;0.0112;0.00119;1.54;350
1422;443;0.0461;0.0112;0.0012;1.54;350
1424;443;0.0462;0.0112;0.0012;1.54;350
1426;443;0.0462;0.0113;0.00119;1.54;350
1428;443;0.0463;0.0113;0.0012;1.54;350
1430;443;0.0463;0.0113;0.00119;1.53;350
1432;442;0.0464;0.0113;0.0012;1.54;350
1434;442;0.0465;0.0113;0.0012;1.54;350
1436;442;0.0465;0.0113;0.00119;1.54;350
1438;442;0.0466;0.0114;0.00123;1.54;350
1440;442;0.0466;0.0114;0.00122;1.54;350
1442;442;0.0467;0.0115;0.00122;1.54;350
1444;441;0.0468;0.0115;0.00122;1.55;350
1446;441;0.0468;0.0115;0.00124;1.54;350
1448;441;0.0469;0.0115;0.00124;1.55;350
1450;441;0.0469;0.0115;0.00126;1.54;350
1452;441;0.047;0.0115;0.00124;1.55;350
1454;441;0.0471;0.0115;0.00125;1.54;350
1456;440;0.0471;0.0115;0.00126;1.54;350
1458;440;0.0472;0.0115;0.00126;1.55;350
1460;440;0.0473;0.0115;0.00127;1.54;350
1462;440;0.0473;0.0115;0.00128;1.54;350
1464;440;0.0474;0.0116;0.00127;1.55;350
1466;440;0.0474;0.0116;0.00128;1.55;350
1468;440;0.0475;0.0116;0.00128;1.55;350
1470;439;0.0476;0.0116;0.00129;1.54;350
1472;439;0.0476;0.0116;0.00129;1.55;350
1474;439;0.0477;0.0116;0.00129;1.55;350
1476;439;0.0477;0.0116;0.00131;1.55;350
1478;439;0.0478;0.0117;0.00128;1.55;350
1480;439;0.0479;0.0116;0.00133;1.54;350
1482;439;0.0479;0.0117;0.00131;1.55;350
1484;438;0.048;0.0117;0.00132;1.55;350
1486;438;0.0481;0.0117;0.00133;1.55;350
1488;438;0.0481;0.0117;0.00133;1.55;350
1490;438;0.0482;0.0117;0.00132;1.55;350
1492;438;0.0482;0.0117;0.00131;1.55;350
1494;438;0.0483;0.0117;0.00134;1.55;350
1496;438;0.0484;0.0118;0.00133;1.55;350
1498;438;0.0484;0.0118;0.00134;1.55;350
1500;437;0.0485;0.0118;0.00134;1.55;350
1502;437;0.0485;0.0118;0.00134;0.775;350
1504;437;0.0485;0.0118;0.00134;0.772;350
1506;437;0.0485;0.0118;0.00135;0.773;350
1508;437;0.0485;0.0118;0.00133;0.772;350
1510;437;0.0485;0.0118;0.00134;0.773;350
1512;437;0.0485;0.0118;0.00133;0.773;350
1514;436;0.0485;0.0118;0.00135;0.772;350
1516;436;0.0485;0.0118;0.00135;0.776;350
1518;436;0.0485;0.0118;0.00135;0.774;350
1520;436;0.0485;0.0118;0.00136;0.773;350
1522;436;0.0485;0.0118;0.00136;0.776;350
1524;436;0.0485;0.0117;0.00138;0.773;350
1526;436;0.0485;0.0118;0.00136;0.775;350
1528;435;0.0485;0.0117;0.00137;0.774;350
1530;435;0.0485;0.0118;0.00136;0.777;350
1532;435;0.0485;0.0117;0.00139;0.777;350
1534;435;0.0485;0.0117;0.0014;0.777;350
1536;435;0.0485;0.0117;0.00138;0.781;350
1538;435;0.0485;0.0117;0.0014;0.782;350
1540;435;0.0485;0.0117;0.0014;0.784;350
1542;434;0.0485;0.0117;0.0014;0.785;350
1544;434;0.0485;0.0117;0.0014;0.786;350
1546;434;0.0485;0.0117;0.00138;0.788;350
1548;434;0.0485;0.0117;0.00138;0.789;350
1550;434;0.0485;0.0117;0.00138;0.792;350
1552;434;0.0485;0.0117;0.0014;0.792;350
1554;434;0.0485;0.0117;0.00139;0.794;350
1556;434;0.0485;0.0117;0.0014;0.797;350
1558;434;0.0485;0.0117;0.00139;0.797;350
1560;434;0.0485;0.0117;0.00139;0.801;350
1562;434;0.0485;0.0117;0.0014;0.805;350
1564;434;0.0485;0.0117;0.0014;0.811;350
1566;434;0.0485;0.0117;0.00141;0.811;350
1568;434;0.0485;0.0117;0.0014;0.812;350
1570;434;0.0485;0.0117;0.00142;0.815;350
1572;434;0.0485;0.0117;0.0014;0.818;350
1574;434;0.0485;0.0117;0.00143;0.821;350
1576;434;0.0485;0.0117;0.00144;0.824;350
1578;435;0.0485;0.0117;0.00144;0.827;350
1580;435;0.0485;0.0117;0.00143;0.83;350
1582;435;0.0485;0.0117;0.00142;0.831;350
1584;435;0.0485;0.0117;0.00142;0.834;350
1586;436;0.0485;0.0117;0.00143;0.836;350
1588;436;0.0485;0.0117;0.00143;0.837;350
1590;436;0.0485;0.0117;0.00144;0.841;350
1592;436;0.0485;0.0117;0.00143;0.841;350
1594;437;0.0485;0.0117;0.00144;0.844;350
1596;437;0.0485;0.0117;0.00143;0.845;350
1598;437;0.0485;0.0117;0.00142;0.848;350
1600;438;0.0485;0.0117;0.00143;0.851;350
1602;438;0.0485;0.0117;0.00144;0.856;350
1604;439;0.0485;0.0117;0.00144;0.859;350
1606;439;0.0485;0.0117;0.00143;0.861;350
1608;439;0.0485;0.0117;0.00143;0.862;350
1610;440;0.0485;0.0117;0.00144;0.868;350
1612;440;0.0485;0.0117;0.00144;0.868;350
1614;441;0.0485;0.0117;0.00145;0.874;350
1616;441;0.0485;0.0117;0.00146;0.874;350
1618;441;0.0485;0.0117;0.00145;0.876;350
1620;442;0.0485;0.0117;0.00142;0.877;350
1622;442;0.0485;0.0117;0.00145;0.88;350
1624;443;0.0485;0.0117;0.00145;0.883;350
1626;443;0.0485;0.0117;0.00146;0.885;350
1628;443;0.0485;0.0117;0.00146;0.886;350
1630;444;0.0485;0.0117;0.00145;0.886;350
1632;444;0.0485;0.0117;0.00145;0.886;350
1634;445;0.0485;0.0116;0.00146;0.888;350
1636;445;0.0485;0.0116;0.00147;0.889;350
1638;445;0.0485;0.0116;0.00147;0.892;350
1640;446;0.0485;0.0116;0.00147;0.894;350
1642;446;0.0485;0.0117;0.00145;0.895;350
1644;446;0.0485;0.0116;0.00146;0.898;350
1646;447;0.0485;0.0117;0.00146;0.899;350
1648;447;0.0485;0.0117;0.00146;0.902;350
1650;448;0.0485;0.0116;0.00147;0.902;350
1652;448;0.0485;0.0117;0.00144;0.906;350
1654;448;0.0485;0.0116;0.00147;0.907;350
1656;448;0.0485;0.0117;0.00146;0.909;350
1658;449;0.0485;0.0116;0.00147;0.912;350
1660;449;0.0485;0.0116;0.00148;0.913;350
1662;449;0.0485;0.0116;0.00147;0.917;350
1664;449;0.0485;0.0116;0.00147;0.918;350
1666;449;0.0485;0.0116;0.00147;0.922;350
1668;449;0.0485;0.0116;0.00149;0.924;350
1670;450;0.0485;0.0116;0.00149;0.926;350
1672;450;0.0485;0.0116;0.00149;0.929;350
1674;450;0.0485;0.0116;0.00148;0.93;350
1676;450;0.0485;0.0117;0.00146;0.934;350
1678;450;0.0485;0.0116;0.00147;0.939;350
1680;450;0.0485;0.0116;0.00147;0.944;350
1682;451;0.0485;0.0116;0.00148;0.947;350
1684;451;0.0485;0.0116;0.00148;0.95;350
1686;451;0.0485;0.0116;0.00148;0.953;350
1688;451;0.0485;0.0116;0.00146;0.956;350
1690;451;0.0485;0.0116;0.00148;0.956;350
1692;452;0.0485;0.0116;0.00149;0.961;350
1694;452;0.0485;0.0116;0.00149;0.962;350
1696;452;0.0485;0.0116;0.0015;0.967;350
1698;452;0.0485;0.0116;0.00151;0.968;350
1700;453;0.0485;0.0116;0.0015;0.977;350
1702;453;0.0485;0.0116;0.0015;0.978;350
1704;453;0.0485;0.0116;0.00149;0.983;350
1706;454;0.0485;0.0116;0.00149;0.986;350
1708;454;0.0485;0.0116;0.0015;0.988;350
1710;454;0.0485;0.0116;0.00149;0.992;350
1712;454;0.0485;0.0116;0.00147;0.996;350
1714;455;0.0485;0.0117;0.00146;0.996;350
1716;455;0.0485;0.0117;0.00146;1;350
1718;455;0.0485;0.0116;0.00147;1;350
1720;456;0.0485;0.0116;0.00147;1;350
1722;456;0.0485;0.0116;0.00148;1.01;350
1724;457;0.0485;0.0116;0.00149;1.01;350
1726;457;0.0485;0.0116;0.00149;1.01;350
1728;458;0.0485;0.0116;0.00149;1.01;350
1730;458;0.0485;0.0116;0.0015;1.02;350
1732;459;0.0485;0.0116;0.00147;1.02;350
1734;459;0.0485;0.0116;0.00151;1.02;350
1736;460;0.0485;0.0116;0.00149;1.03;350
1738;460;0.0485;0.0116;0.0015;1.03;350
1740;460;0.0485;0.0116;0.0015;1.03;350
1742;461;0.0485;0.0116;0.00152;1.03;350
1744;461;0.0485;0.0116;0.00152;1.03;350
1746;462;0.0485;0.0116;0.00152;1.04;350
1748;462;0.0485;0.0116;0.00153;1.04;350
1750;463;0.0485;0.0116;0.00153;1.05;350
1752;463;0.0485;0.0116;0.00151;1.05;350
1754;463;0.0485;0.0116;0.00153;1.05;350
1756;464;0.0485;0.0116;0.00152;1.06;350
1758;464;0.0485;0.0116;0.00153;1.06;350
1760;464;0.0485;0.0116;0.00152;1.06;350
1762;464;0.0485;0.0116;0.00153;1.07;350
1764;464;0.0485;0.0116;0.00153;1.07;350
1766;465;0.0485;0.0116;0.00152;1.07;350
1768;465;0.0485;0.0116;0.00151;1.08;350
1770;465;0.0485;0.0116;0.00152;1.08;350
1772;465;0.0485;0.0116;0.00152;1.08;350
1774;465;0.0485;0.0116;0.00152;1.08;350
1776;466;0.0485;0.0116;0.00153;1.08;350
1778;466;0.0485;0.0116;0.00153;1.08;350
1780;466;0.0485;0.0116;0.00152;1.08;350
1782;467;0.0485;0.0116;0.00153;1.09;350
1784;467;0.0485;0.0116;0.00151;1.09;350
1786;467;0.0485;0.0116;0.00153;1.09;350
1788;468;0.0485;0.0116;0.00153;1.09;350
1790;468;0.0485;0.0116;0.00154;1.09;350
1792;468;0.0485;0.0116;0.00154;1.1;350
1794;469;0.0485;0.0116;0.00154;1.1;350
1796;469;0.0485;0.0116;0.00155;1.1;350
1798;469;0.0485;0.0116;0.00155;1.1;350
1800;470;0.0485;0.0116;0.00154;1.1;350
1802;470;0.0485;0.0115;0.00156;1.1;350
1804;470;0.0485;0.0116;0.00156;1.1;350
1806;470;0.0485;0.0116;0.00155;1.1;350
1808;470;0.0485;0.0116;0.00155;1.11;350
1810;470;0.0485;0.0116;0.00155;1.11;350
1812;471;0.0485;0.0116;0.00156;1.11;350
1814;471;0.0485;0.0116;0.00155;1.11;350
1816;471;0.0485;0.0116;0.00154;1.11;350
1818;471;0.0485;0.0116;0.00154;1.11;350
1820;471;0.0485;0.0116;0.00154;1.11;350
1822;471;0.0485;0.0116;0.00154;1.11;350
1824;471;0.0485;0.0116;0.00155;1.12;350
1826;471;0.0485;0.0116;0.00155;1.12;350
1828;471;0.0485;0.0116;0.00156;1.12;350
1830;471;0.0485;0.0115;0.00156;1.12;350
1832;471;0.0485;0.0116;0.00156;1.12;350
1834;471;0.0485;0.0116;0.00155;1.12;350
1836;471;0.0485;0.0116;0.00154;1.13;350
1838;471;0.0485;0.0116;0.00153;1.13;350
1840;471;0.0485;0.0116;0.00153;1.13;350
1842;470;0.0485;0.0116;0.00154;1.13;350
1844;470;0.0485;0.0116;0.00154;1.13;350
1846;470;0.0485;0.0116;0.00153;1.13;350
1848;470;0.0485;0.0116;0.00156;1.14;350
1850;470;0.0485;0.0115;0.00157;1.14;350
1852;470;0.0485;0.0116;0.00155;1.14;350
1854;470;0.0485;0.0116;0.00156;1.14;350
1856;470;0.0485;0.0116;0.00156;1.14;350
1858;470;0.0485;0.0115;0.00156;1.14;350
1860;470;0.0485;0.0115;0.00157;1.14;350
1862;470;0.0485;0.0115;0.00158;1.15;350
1864;470;0.0485;0.0115;0.00157;1.15;350
1866;470;0.0485;0.0116;0.00155;1.15;350
1868;470;0.0485;0.0115;0.00157;1.15;350
1870;470;0.0485;0.0115;0.00157;1.15;350
1872;470;0.0485;0.0115;0.00157;1.15;350
1874;470;0.0485;0.0115;0.00156;1.15;350
1876;470;0.0485;0.0115;0.00156;1.15;350
1878;470;0.0485;0.0116;0.00155;1.15;350
1880;470;0.0485;0.0115;0.00157;1.16;350
1882;470;0.0485;0.0115;0.00157;1.16;350
1884;470;0.0485;0.0116;0.00156;1.16;350
1886;470;0.0485;0.0115;0.00157;1.16;350
1888;470;0.0485;0.0115;0.00156;1.16;350
1890;470;0.0485;0.0115;0.00156;1.16;350
1892;470;0.0485;0.0116;0.00155;1.17;350
1894;470;0.0485;0.0116;0.00154;1.16;350
1896;470;0.0485;0.0116;0.00155;1.17;350
1898;470;0.0485;0.0115;0.00157;1.17;350
1900;470;0.0485;0.0116;0.00155;1.17;350
1902;470;0.0485;0.0116;0.00155;1.17;350
1904;470;0.0485;0.0115;0.00157;1.17;350
1906;470;0.0485;0.0115;0.00159;1.18;350
1908;470;0.0485;0.0115;0.00159;1.17;350
1910;470;0.0485;0.0115;0.00159;1.18;350
1912;470;0.0485;0.0115;0.0016;1.18;350
1914;469;0.0485;0.0115;0.00162;1.18;350
1916;469;0.0485;0.0115;0.00161;1.18;350
1918;469;0.0485;0.0115;0.0016;1.18;350
1920;469;0.0485;0.0115;0.00158;1.19;350
1922;469;0.0485;0.0115;0.00159;1.19;350
1924;469;0.0485;0.0115;0.00161;1.19;350
1926;469;0.0485;0.0115;0.00161;1.19;350
1928;469;0.0485;0.0115;0.00161;1.19;350
1930;469;0.0485;0.0115;0.00159;1.19;350
1932;469;0.0485;0.0115;0.0016;1.19;350
1934;469;0.0485;0.0115;0.00159;1.2;350
1936;469;0.0485;0.0115;0.00159;1.2;350
1938;469;0.0485;0.0115;0.0016;1.2;350
1940;469;0.0485;0.0115;0.00159;1.2;350
1942;469;0.0485;0.0115;0.00161;1.2;350
1944;469;0.0485;0.0115;0.00161;1.2;350
1946;469;0.0485;0.0115;0.0016;1.21;350
1948;469;0.0485;0.0115;0.00161;1.2;350
1950;469;0.0485;0.0115;0.00161;1.21;350
1952;468;0.0485;0.0115;0.00161;1.21;350
1954;469;0.0485;0.0115;0.00161;1.21;350
1956;469;0.0485;0.0115;0.00161;1.21;350
1958;469;0.0485;0.0115;0.00159;1.21;350
1960;469;0.0485;0.0115;0.0016;1.22;350
1962;469;0.0485;0.0115;0.00162;1.22;350
1964;469;0.0485;0.0115;0.00159;1.22;350
1966;469;0.0485;0.0115;0.00161;1.22;350
1968;469;0.0485;0.0115;0.00162;1.22;350
1970;469;0.0485;0.0115;0.0016;1.22;350
1972;469;0.0485;0.0115;0.0016;1.22;350
1974;469;0.0485;0.0115;0.0016;1.23;350
1976;469;0.0485;0.0115;0.00161;1.23;350
1978;469;0.0485;0.0115;0.00162;1.23;350
1980;469;0.0485;0.0115;0.00162;1.23;350
1982;469;0.0485;0.0115;0.00162;1.23;350
1984;469;0.0485;0.0115;0.00161;1.23;350
1986;469;0.0485;0.0115;0.00161;1.24;350
1988;469;0.0485;0.0115;0.00162;1.24;350
1990;469;0.0485;0.0115;0.0016;1.24;350
1992;469;0.0485;0.0115;0.00162;1.24;350
1994;469;0.0485;0.0115;0.00162;1.24;350
1996;469;0.0485;0.0115;0.00163;1.24;350
1998;469;0.0485;0.0115;0.00163;1.24;350
2000;469;0.0485;0.0115;0.00164;1.25;350
2002;469;0.0485;0.0115;0.00164;1.24;350
2004;468;0.0485;0.0115;0.00164;1.25;350
2006;469;0.0485;0.0115;0.00163;1.25;350
2008;469;0.0485;0.0115;0.00163;1.25;350
2010;469;0.0485;0.0115;0.00165;1.25;350
2012;469;0.0485;0.0115;0.00165;1.25;350
2014;468;0.0485;0.0115;0.00163;1.25;350
2016;468;0.0485;0.0115;0.00165;1.25;350
2018;468;0.0485;0.0115;0.00165;1.26;350
2020;468;0.0485;0.0115;0.00163;1.26;350
2022;468;0.0485;0.0115;0.00164;1.26;350
2024;468;0.0485;0.0115;0.00164;1.26;350
2026;468;0.0485;0.0115;0.00164;1.26;350
2028;468;0.0485;0.0115;0.00165;1.26;350
2030;468;0.0485;0.0115;0.00165;1.26;350
2032;468;0.0485;0.0115;0.00165;1.26;350
2034;468;0.0485;0.0115;0.00165;1.26;350
2036;468;0.0485;0.0115;0.00163;1.26;350
2038;468;0.0485;0.0115;0.00164;1.26;350
2040;468;0.0485;0.0115;0.00162;1.26;350
2042;468;0.0485;0.0115;0.00163;1.27;350
2044;468;0.0485;0.0115;0.00162;1.27;350
2046;468;0.0485;0.0115;0.00164;1.27;350
2048;468;0.0485;0.0115;0.00162;1.28;350
2050;468;0.0485;0.0115;0.00162;1.27;350
2052;467;0.0485;0.0115;0.00162;1.28;350
2054;467;0.0485;0.0115;0.00162;1.28;350
2056;467;0.0485;0.0115;0.00162;1.28;350
2058;467;0.0485;0.0115;0.00163;1.28;350
2060;467;0.0485;0.0115;0.00164;1.28;350
2062;467;0.0485;0.0115;0.00163;1.28;350
2064;467;0.0485;0.0115;0.00163;1.28;350
2066;467;0.0485;0.0115;0.00164;1.28;350
2068;467;0.0485;0.0115;0.00164;1.29;350
2070;467;0.0485;0.0115;0.00164;1.29;350
2072;466;0.0485;0.0114;0.00166;1.29;350
2074;466;0.0485;0.0115;0.00165;1.29;350
2076;466;0.0485;0.0115;0.00165;1.29;350
2078;466;0.0485;0.0114;0.00166;1.3;350
2080;466;0.0485;0.0114;0.00167;1.29;350
2082;466;0.0485;0.0114;0.00166;1.3;350
2084;466;0.0485;0.0114;0.00166;1.3;350
2086;466;0.0485;0.0114;0.00165;1.3;350
2088;466;0.0485;0.0114;0.00166;1.3;350
2090;466;0.0485;0.0114;0.00168;1.3;350
2092;466;0.0485;0.0114;0.00166;1.3;350
2094;466;0.0485;0.0114;0.00167;1.3;350
2096;466;0.0485;0.0114;0.00167;1.31;350
2098;466;0.0485;0.0114;0.00169;1.31;350
2100;466;0.0485;0.0114;0.00168;1.31;350
2102;466;0.0485;0.0114;0.00168;1.31;350
2104;466;0.0485;0.0114;0.00168;1.31;350
2106;466;0.0485;0.0114;0.00168;1.32;350
2108;466;0.0485;0.0114;0.00168;1.32;350
2110;466;0.0485;0.0114;0.00167;1.32;350
2112;466;0.0485;0.0114;0.00167;1.32;350
2114;466;0.0485;0.0114;0.00167;1.33;350
2116;466;0.0485;0.0115;0.00165;1.33;350
2118;466;0.0485;0.0114;0.00167;1.34;350
2120;466;0.0485;0.0114;0.00167;1.34;350
2122;466;0.0485;0.0114;0.00167;1.34;350
2124;466;0.0485;0.0114;0.00166;1.34;350
2126;466;0.0485;0.0114;0.00166;1.35;350
2128;466;0.0485;0.0114;0.00168;1.35;350
2130;466;0.0485;0.0114;0.00169;1.35;350
2132;466;0.0485;0.0114;0.00167;1.35;350
2134;466;0.0485;0.0114;0.00166;1.35;350
2136;466;0.0485;0.0114;0.00166;1.36;350
2138;466;0.0485;0.0114;0.00168;1.36;350
2140;467;0.0485;0.0114;0.00168;1.37;350
2142;467;0.0485;0.0114;0.00169;1.36;350
2144;467;0.0485;0.0114;0.00168;1.37;350
2146;467;0.0485;0.0114;0.00167;1.37;350
2148;467;0.0485;0.0114;0.00166;1.37;350
2150;468;0.0485;0.0114;0.00168;1.37;350
2152;468;0.0485;0.0114;0.00169;1.37;350
2154;468;0.0485;0.0114;0.0017;1.38;350
2156;468;0.0485;0.0114;0.00168;1.38;350
2158;468;0.0485;0.0114;0.00169;1.38;350
2160;469;0.0485;0.0114;0.00169;1.38;350
2162;469;0.0485;0.0114;0.00168;1.38;350
2164;469;0.0485;0.0114;0.00169;1.38;350
2166;470;0.0485;0.0114;0.00168;1.39;350
2168;470;0.0485;0.0114;0.00168;1.39;350
2170;470;0.0485;0.0114;0.00168;1.39;350
2172;470;0.0485;0.0114;0.00168;1.39;350
2174;470;0.0485;0.0114;0.00167;1.39;350
2176;470;0.0485;0.0114;0.00166;1.4;350
2178;471;0.0485;0.0114;0.00167;1.4;350
2180;471;0.0485;0.0114;0.00167;1.4;350
2182;471;0.0485;0.0114;0.00166;1.4;350
2184;471;0.0485;0.0114;0.00165;1.41;350
2186;471;0.0485;0.0115;0.00164;1.41;350
2188;471;0.0485;0.0114;0.00166;1.41;350
2190;471;0.0485;0.0114;0.00167;1.41;350
2192;471;0.0485;0.0114;0.00167;1.41;350
2194;471;0.0485;0.0114;0.00166;1.41;350
2196;471;0.0485;0.0115;0.00165;1.41;350
2198;471;0.0485;0.0114;0.00165;1.41;350
2200;471;0.0485;0.0114;0.00167;1.41;350
2202;471;0.0485;0.0114;0.00168;1.41;350
2204;471;0.0485;0.0114;0.00166;1.42;350
2206;471;0.0485;0.0114;0.00165;1.42;350
2208;471;0.0485;0.0114;0.00167;1.42;350
2210;471;0.0485;0.0114;0.00167;1.42;350
2212;471;0.0485;0.0114;0.00167;1.42;350
2214;471;0.0485;0.0114;0.00166;1.43;350
2216;471;0.0485;0.0114;0.00167;1.43;350
2218;471;0.0485;0.0114;0.00167;1.43;350
2220;471;0.0485;0.0114;0.00166;1.43;350
2222;471;0.0485;0.0114;0.00167;1.43;350
2224;471;0.0485;0.0114;0.00166;1.43;350
2226;471;0.0485;0.0114;0.00167;1.43;350
2228;471;0.0485;0.0114;0.00166;1.44;350
2230;471;0.0485;0.0114;0.00167;1.44;350
2232;471;0.0485;0.0114;0.00167;1.43;350
2234;471;0.0485;0.0114;0.00166;1.44;350
2236;471;0.0485;0.0114;0.00165;1.44;350
2238;471;0.0485;0.0114;0.00166;1.44;350
2240;471;0.0485;0.0114;0.00167;1.44;350
2242;471;0.0485;0.0115;0.00165;1.44;350
2244;471;0.0485;0.0115;0.00164;1.44;350
2246;471;0.0485;0.0114;0.00165;1.44;350
2248;471;0.0485;0.0115;0.00164;1.45;350
2250;471;0.0485;0.0115;0.00165;1.45;350
2252;471;0.0485;0.0115;0.00164;1.45;350
2254;471;0.0485;0.0115;0.00165;1.45;350
2256;471;0.0485;0.0114;0.00166;1.45;350
2258;471;0.0485;0.0114;0.00166;1.45;350
2260;471;0.0485;0.0114;0.00166;1.45;350
2262;471;0.0485;0.0115;0.00164;1.46;350
2264;471;0.0485;0.0114;0.00166;1.46;350
2266;470;0.0485;0.0114;0.00166;1.46;350
2268;470;0.0485;0.0114;0.00167;1.46;350
2270;470;0.0485;0.0115;0.00165;1.46;350
2272;470;0.0485;0.0114;0.00167;1.46;350
2274;470;0.0485;0.0114;0.00167;1.46;350
2276;470;0.0485;0.0114;0.00166;1.46;350
2278;470;0.0485;0.0115;0.00165;1.47;350
2280;470;0.0485;0.0114;0.00167;1.47;350
2282;470;0.0485;0.0115;0.00164;1.47;350
2284;470;0.0485;0.0115;0.00165;1.47;350
2286;470;0.0485;0.0115;0.00165;1.47;350
2288;470;0.0485;0.0114;0.00166;1.48;350
2290;470;0.0485;0.0114;0.00166;1.47;350
2292;470;0.0485;0.0115;0.00165;1.48;350
2294;470;0.0485;0.0115;0.00165;1.48;350
2296;469;0.0485;0.0115;0.00165;1.48;350
2298;469;0.0485;0.0115;0.00164;1.48;350
2300;469;0.0485;0.0114;0.00166;1.48;350
2302;469;0.0485;0.0115;0.00165;1.48;350
2304;469;0.0485;0.0114;0.00166;1.48;350
2306;469;0.0485;0.0114;0.00166;1.48;350
2308;469;0.0485;0.0115;0.00165;1.48;350
2310;469;0.0485;0.0115;0.00163;1.48;350
2312;469;0.0485;0.0115;0.00165;1.48;350
2314;469;0.0485;0.0115;0.00164;1.49;350
2316;469;0.0485;0.0115;0.00162;1.49;350
2318;469;0.0485;0.0115;0.00164;1.49;350
2320;469;0.0485;0.0115;0.00163;1.49;350
2322;469;0.0485;0.0115;0.00161;1.49;350
2324;469;0.0485;0.0115;0.00162;1.49;350
2326;468;0.0485;0.0115;0.00162;1.49;350
2328;468;0.0485;0.0115;0.00161;1.49;350
2330;468;0.0485;0.0115;0.00161;1.49;350
2332;468;0.0485;0.0115;0.00161;1.49;350
2334;468;0.0485;0.0115;0.0016;1.49;350
2336;468;0.0485;0.0115;0.00161;1.49;350
2338;468;0.0485;0.0115;0.00162;1.49;350
2340;468;0.0485;0.0115;0.00162;1.49;350
2342;468;0.0485;0.0115;0.0016;1.49;350
2344;468;0.0485;0.0115;0.0016;1.5;350
2346;468;0.0485;0.0115;0.00162;1.5;350
2348;467;0.0485;0.0115;0.00162;1.5;350
2350;467;0.0485;0.0115;0.00162;1.5;350
2352;467;0.0485;0.0115;0.00162;1.5;350
2354;467;0.0485;0.0115;0.0016;1.5;350
2356;467;0.0485;0.0115;0.00161;1.5;350
2358;467;0.0485;0.0115;0.00161;1.5;350
2360;466;0.0485;0.0115;0.00161;1.5;350
2362;466;0.0485;0.0115;0.0016;1.5;350
2364;466;0.0485;0.0115;0.00161;1.5;350
2366;466;0.0485;0.0115;0.00159;1.5;350
2368;466;0.0485;0.0115;0.00161;1.5;350
2370;466;0.0485;0.0115;0.0016;1.5;350
2372;465;0.0485;0.0115;0.00158;1.5;350
2374;465;0.0485;0.0115;0.0016;1.49;350
2376;465;0.0485;0.0115;0.00158;1.49;350
2378;465;0.0485;0.0115;0.0016;1.48;350
2380;465;0.0485;0.0115;0.0016;1.48;350
2382;464;0.0485;0.0115;0.00158;1.48;350
2384;464;0.0485;0.0115;0.00161;1.47;350
2386;464;0.0485;0.0115;0.0016;1.47;350
2388;464;0.0485;0.0115;0.0016;1.47;350
2390;464;0.0485;0.0115;0.00161;1.47;350
2392;463;0.0485;0.0115;0.00161;1.47;350
2394;463;0.0485;0.0115;0.0016;1.47;350
2396;463;0.0485;0.0115;0.0016;1.46;350
2398;463;0.0485;0.0115;0.00159;1.46;350
2400;463;0.0485;0.0115;0.0016;1.46;350
2402;463;0.0485;0.0115;0.0016;1.46;350
2404;462;0.0485;0.0115;0.00158;1.46;350
2406;462;0.0485;0.0115;0.00159;1.46;350
2408;461;0.0485;0.0115;0.00158;1.46;350
2410;460;0.0485;0.0115;0.00158;1.46;350
2412;459;0.0485;0.0115;0.00159;1.45;350
2414;458;0.0485;0.0115;0.00157;1.46;350
2416;457;0.0485;0.0115;0.0016;1.45;350
2418;456;0.0485;0.0115;0.00157;1.45;350
2420;455;0.0485;0.0115;0.00158;1.45;350
2422;454;0.0485;0.0115;0.00159;1.45;350
2424;454;0.0485;0.0115;0.00158;1.45;350
2426;453;0.0485;0.0115;0.00158;1.45;350
2428;452;0.0485;0.0115;0.00157;1.45;350
2430;451;0.0485;0.0115;0.00158;1.45;350
2432;451;0.0485;0.0115;0.00158;1.45;350
2434;451;0.0485;0.0115;0.00159;1.45;350
2436;450;0.0485;0.0115;0.00158;1.45;350
2438;450;0.0485;0.0115;0.00159;1.45;350
2440;449;0.0485;0.0115;0.0016;1.45;350
2442;449;0.0485;0.0115;0.00159;1.45;350
2444;448;0.0485;0.0115;0.00159;1.45;350
2446;448;0.0485;0.0115;0.00158;1.45;350
2448;448;0.0485;0.0115;0.00158;1.45;350
2450;447;0.0485;0.0115;0.0016;1.45;350
2452;447;0.0485;0.0115;0.0016;1.45;350
2454;447;0.0485;0.0115;0.0016;1.45;350
2456;446;0.0485;0.0115;0.00159;1.45;350
2458;446;0.0485;0.0115;0.00159;1.45;350
2460;446;0.0485;0.0115;0.0016;1.45;350
2462;445;0.0485;0.0115;0.0016;1.45;350
2464;445;0.0485;0.0115;0.00158;1.45;350
2466;445;0.0485;0.0115;0.00159;1.45;350
2468;444;0.0485;0.0115;0.00158;1.46;350
2470;444;0.0485;0.0115;0.0016;1.45;350
2472;444;0.0485;0.0115;0.00159;1.46;350
2474;444;0.0485;0.0115;0.00159;1.46;350
2476;444;0.0485;0.0115;0.00159;1.45;350
2478;444;0.0485;0.0115;0.00158;1.45;350
2480;444;0.0485;0.0115;0.0016;1.46;350
2482;443;0.0485;0.0115;0.00157;1.45;350
2484;443;0.0485;0.0115;0.00158;1.46;350
2486;443;0.0485;0.0115;0.00158;1.45;350
2488;443;0.0485;0.0116;0.00156;1.45;350
2490;443;0.0485;0.0115;0.00156;1.45;350
2492;443;0.0485;0.0115;0.00156;1.45;350
2494;443;0.0485;0.0115;0.00158;1.46;350
2496;443;0.0485;0.0116;0.00155;1.45;350
2498;443;0.0485;0.0115;0.00157;1.46;350
2500;443;0.0485;0.0115;0.00159;1.45;350
2502;442;0.0485;0.0115;0.00158;1.46;350
2504;442;0.0485;0.0115;0.0016;1.46;350
2506;442;0.0485;0.0115;0.00159;1.46;350
2508;442;0.0485;0.0115;0.0016;1.46;350
2510;442;0.0485;0.0115;0.00161;1.46;350
2512;442;0.0485;0.0115;0.00159;1.46;350
2514;442;0.0485;0.0115;0.00161;1.46;350
2516;442;0.0485;0.0115;0.0016;1.46;350
2518;442;0.0485;0.0115;0.00158;1.46;350
2520;442;0.0485;0.0115;0.0016;1.46;350
2522;442;0.0485;0.0115;0.0016;1.46;350
2524;442;0.0485;0.0115;0.00159;1.46;350
2526;441;0.0485;0.0115;0.00158;1.46;350
2528;441;0.0485;0.0115;0.00158;1.46;350
2530;441;0.0485;0.0115;0.00158;1.46;350
2532;441;0.0485;0.0115;0.00158;1.46;350
2534;441;0.0485;0.0115;0.00158;1.46;350
2536;441;0.0485;0.0115;0.00158;1.46;350
2538;441;0.0485;0.0115;0.00158;1.46;350
2540;441;0.0485;0.0115;0.00158;1.46;350
2542;440;0.0485;0.0115;0.00158;1.46;350
2544;440;0.0485;0.0115;0.00158;1.46;350
2546;440;0.0485;0.0115;0.00158;1.46;350
2548;440;0.0485;0.0115;0.00158;1.46;350
2550;440;0.0485;0.0115;0.00158;1.46;350
2552;440;0.0485;0.0115;0.00158;1.46;350
2554;439;0.0485;0.0115;0.00158;1.46;350
2556;440;0.0485;0.0115;0.00158;1.46;350
2558;439;0.0485;0.0115;0.00158;1.47;350
2560;439;0.0485;0.0115;0.00158;1.46;350
2562;439;0.0485;0.0115;0.00158;1.47;350
2564;439;0.0485;0.0115;0.00158;1.47;350
2566;439;0.0485;0.0115;0.00158;1.47;350
2568;439;0.0485;0.0115;0.00158;1.47;350
2570;439;0.0485;0.0115;0.00158;1.47;350
2572;439;0.0485;0.0115;0.00158;1.47;350
2574;439;0.0485;0.0115;0.00158;1.47;350
2576;439;0.0485;0.0115;0.00158;1.47;350
2578;439;0.0485;0.0115;0.00158;1.47;350
2580;439;0.0485;0.0115;0.00158;1.47;350
2582;439;0.0485;0.0115;0.00158;1.47;350
2584;439;0.0485;0.0115;0.00158;1.47;350
2586;439;0.0485;0.0115;0.00158;1.47;350
2588;439;0.0485;0.0115;0.00158;1.47;350
2590;438;0.0485;0.0115;0.00158;1.47;350
2592;438;0.0485;0.0115;0.00158;1.47;350
2594;438;0.0485;0.0115;0.00158;1.47;350
2596;438;0.0485;0.0115;0.00158;1.47;350
2598;438;0.0485;0.0115;0.00158;1.47;350
2600;438;0.0485;0.0115;0.00158;1.47;350
2602;438;0.0485;0.0115;0.00158;1.47;350
2604;438;0.0485;0.0115;0.00158;1.47;350
2606;438;0.0485;0.0115;0.00158;1.47;350
2608;438;0.0485;0.0115;0.00158;1.47;350
2610;438;0.0485;0.0115;0.00158;1.47;350
2612;438;0.0485;0.0115;0.00158;1.47;350
2614;438;0.0485;0.0115;0.00158;1.47;350
2616;438;0.0485;0.0115;0.00158;1.47;350
2618;438;0.0485;0.0115;0.00158;1.47;350
2620;438;0.0485;0.0115;0.00158;1.47;350
2622;437;0.0485;0.0115;0.00158;1.47;350
2624;437;0.0485;0.0115;0.00158;1.47;350
2626;437;0.0485;0.0115;0.00158;1.47;350
2628;437;0.0485;0.0115;0.00158;1.47;350
2630;437;0.0485;0.0115;0.00158;1.48;350
2632;437;0.0485;0.0115;0.00158;1.48;350
2634;437;0.0485;0.0115;0.00158;1.48;350
2636;437;0.0485;0.0115;0.00158;1.48;350
2638;437;0.0485;0.0115;0.00158;1.47;350
2640;437;0.0485;0.0115;0.00158;1.48;350
2642;437;0.0485;0.0115;0.00158;1.47;350
2644;437;0.0485;0.0115;0.00158;1.47;350
2646;437;0.0485;0.0115;0.00158;1.48;350
2648;437;0.0485;0.0115;0.00158;1.48;350
2650;437;0.0485;0.0115;0.00158;1.48;350
2652;437;0.0485;0.0115;0.00158;1.47;350
2654;437;0.0485;0.0115;0.00158;1.47;350
2656;437;0.0485;0.0115;0.00158;1.48;350
2658;437;0.0485;0.0115;0.00158;1.48;350
2660;436;0.0485;0.0115;0.00158;1.48;350
2662;436;0.0485;0.0115;0.00158;1.48;350
2664;436;0.0485;0.0115;0.00158;1.48;350
2666;436;0.0485;0.0115;0.00158;1.48;350
2668;437;0.0485;0.0115;0.00158;1.48;350
2670;437;0.0485;0.0115;0.00158;1.48;350
2672;437;0.0485;0.0115;0.00158;1.48;350
2674;437;0.0485;0.0115;0.00158;1.48;350
2676;437;0.0485;0.0115;0.00158;1.48;350
2678;437;0.0485;0.0115;0.00158;1.48;350
2680;437;0.0485;0.0115;0.00158;1.48;350
2682;437;0.0485;0.0115;0.00158;1.48;350
2684;437;0.0485;0.0115;0.00158;1.48;350
2686;436;0.0485;0.0115;0.00158;1.48;350
2688;437;0.0485;0.0115;0.00158;1.48;350
2690;437;0.0485;0.0115;0.00158;1.48;350
2692;437;0.0485;0.0115;0.00158;1.48;350
2694;436;0.0485;0.0115;0.00158;1.48;350
2696;436;0.0485;0.0115;0.00158;1.48;350
2698;436;0.0485;0.0115;0.00158;1.48;350
2700;436;0.0485;0.0115;0.00158;1.48;350
2702;436;0.0485;0.0115;0.00158;1.48;350
2704;436;0.0485;0.0115;0.00158;1.48;350
2706;436;0.0485;0.0115;0.00158;1.48;350
2708;436;0.0485;0.0115;0.00158;1.48;350
2710;436;0.0485;0.0115;0.00158;1.48;350
2712;436;0.0485;0.0115;0.00158;1.47;350
2714;436;0.0485;0.0115;0.00158;1.48;350
2716;436;0.0485;0.0115;0.00158;1.48;350
2718;435;0.0485;0.0115;0.00158;1.48;350
2720;435;0.0485;0.0115;0.00158;1.48;350
2722;435;0.0485;0.0115;0.00158;1.48;350
2724;435;0.0485;0.0115;0.00158;1.48;350
2726;435;0.0485;0.0115;0.00158;1.48;350
2728;435;0.0485;0.0115;0.00158;1.48;350
2730;435;0.0485;0.0115;0.00158;1.48;350
2732;435;0.0485;0.0115;0.00158;1.48;350
2734;435;0.0485;0.0115;0.00158;1.48;350
2736;434;0.0485;0.0115;0.00158;1.48;350
2738;434;0.0485;0.0115;0.00158;1.48;350
2740;434;0.0485;0.0115;0.00158;1.47;350
2742;434;0.0485;0.0115;0.00158;1.47;350
2744;434;0.0485;0.0115;0.00158;1.48;350
2746;434;0.0485;0.0115;0.00158;1.47;350
2748;434;0.0485;0.0115;0.00158;1.47;350
2750;434;0.0485;0.0115;0.00158;1.47;350
2752;434;0.0485;0.0115;0.00158;1.47;350
2754;433;0.0485;0.0115;0.00158;1.47;350
2756;433;0.0485;0.0115;0.00158;1.47;350
2758;433;0.0485;0.0115;0.00158;1.47;350
2760;433;0.0485;0.0115;0.00158;1.48;350
2762;433;0.0485;0.0115;0.00158;1.48;350
2764;433;0.0485;0.0115;0.00158;1.48;350
2766;433;0.0485;0.0115;0.00158;1.47;350
2768;433;0.0485;0.0115;0.00158;1.48;350
2770;433;0.0485;0.0115;0.00158;1.47;350
2772;433;0.0485;0.0115;0.00158;1.47;350
2774;432;0.0485;0.0115;0.00158;1.47;350
2776;432;0.0485;0.0115;0.00158;1.47;350
2778;432;0.0485;0.0115;0.00158;1.48;350
2780;432;0.0485;0.0115;0.00158;1.47;350
2782;432;0.0485;0.0115;0.00158;1.48;350
2784;432;0.0485;0.0115;0.00158;1.47;350
2786;432;0.0485;0.0115;0.00158;1.47;350
2788;432;0.0485;0.0115;0.00158;1.47;350
2790;432;0.0485;0.0115;0.00158;1.47;350
2792;432;0.0485;0.0115;0.00158;1.48;350
2794;432;0.0485;0.0115;0.00158;1.47;350
2796;432;0.0485;0.0115;0.00158;1.47;350
2798;431;0.0485;0.0115;0.00158;1.47;350
2800;431;0.0485;0.0115;0.00158;1.47;350
2802;431;0.0485;0.0115;0.00158;1.47;350
2804;431;0.0485;0.0115;0.00158;1.48;350
2806;432;0.0485;0.0115;0.00158;1.47;350
2808;432;0.0485;0.0115;0.00158;1.47;350
2810;432;0.0485;0.0115;0.00158;1.47;350
2812;432;0.0485;0.0115;0.00158;1.47;350
2814;432;0.0485;0.0115;0.00158;1.47;350
2816;431;0.0485;0.0115;0.00158;1.47;350
2818;431;0.0485;0.0115;0.00158;1.47;350
2820;431;0.0485;0.0115;0.00158;1.47;350
2822;431;0.0485;0.0115;0.00158;1.47;350
2824;431;0.0485;0.0115;0.00158;1.47;350
2826;431;0.0485;0.0115;0.00158;1.47;350
2828;431;0.0485;0.0115;0.00158;1.47;350
2830;431;0.0485;0.0115;0.00158;1.47;350
2832;431;0.0485;0.0115;0.00158;1.47;350
2834;430;0.0485;0.0115;0.00158;1.47;350
2836;430;0.0485;0.0115;0.00158;1.47;350
2838;430;0.0485;0.0115;0.00158;1.47;350
2840;430;0.0485;0.0115;0.00158;1.47;350
2842;430;0.0485;0.0115;0.00158;1.47;350
2844;430;0.0485;0.0115;0.00158;1.47;350
2846;430;0.0485;0.0115;0.00158;1.47;350
2848;430;0.0485;0.0115;0.00158;1.47;350
2850;430;0.0485;0.0115;0.00158;1.46;350
2852;430;0.0485;0.0115;0.00158;1.47;350
2854;430;0.0485;0.0115;0.00158;1.46;350
2856;430;0.0485;0.0115;0.00158;1.46;350
2858;429;0.0485;0.0115;0.00158;1.47;350
2860;429;0.0485;0.0115;0.00158;1.46;350
2862;429;0.0485;0.0115;0.00158;1.47;350
2864;429;0.0485;0.0115;0.00158;1.46;350
2866;429;0.0485;0.0115;0.00158;1.47;350
2868;429;0.0485;0.0115;0.00158;1.47;350
2870;429;0.0485;0.0115;0.00158;1.47;350
2872;429;0.0485;0.0115;0.00158;1.47;350
2874;429;0.0485;0.0115;0.00158;1.46;350
2876;428;0.0485;0.0115;0.00158;1.46;350
2878;428;0.0485;0.0115;0.00158;1.46;350
2880;428;0.0485;0.0115;0.00158;1.46;350
2882;428;0.0485;0.0115;0.00158;1.46;350
2884;428;0.0485;0.0115;0.00158;1.46;350
2886;428;0.0485;0.0115;0.00158;1.46;350
2888;428;0.0485;0.0115;0.00158;1.46;350
2890;428;0.0485;0.0115;0.00158;1.46;350
2892;428;0.0485;0.0115;0.00158;1.46;350
2894;428;0.0485;0.0115;0.00158;1.46;350
2896;428;0.0485;0.0115;0.00158;1.47;350
2898;428;0.0485;0.0115;0.00158;1.46;350
2900;427;0.0485;0.0115;0.00158;1.46;350
2902;427;0.0485;0.0115;0.00158;1.46;350
2904;427;0.0485;0.0115;0.00158;1.46;350
2906;427;0.0485;0.0115;0.00158;1.46;350
2908;427;0.0485;0.0115;0.00158;1.46;350
2910;427;0.0485;0.0115;0.00158;1.46;350
2912;427;0.0485;0.0115;0.00158;1.46;350
2914;427;0.0485;0.0115;0.00158;1.46;350
2916;427;0.0485;0.0115;0.00158;1.46;350
2918;427;0.0485;0.0115;0.00158;1.46;350
2920;427;0.0485;0.0115;0.00158;1.46;350
2922;427;0.0485;0.0115;0.00158;1.46;350
2924;427;0.0485;0.0115;0.00158;1.46;350
2926;427;0.0485;0.0115;0.00158;1.46;350
2928;426;0.0485;0.0115;0.00158;1.46;350
2930;426;0.0485;0.0115;0.00158;1.46;350
2932;426;0.0485;0.0115;0.00158;1.46;350
2934;426;0.0485;0.0115;0.00158;1.46;350
2936;426;0.0485;0.0115;0.00158;1.46;350
2938;426;0.0485;0.0115;0.00158;1.46;350
2940;426;0.0485;0.0115;0.00158;1.46;350
2942;426;0.0485;0.0115;0.00158;1.46;350
2944;427;0.0485;0.0115;0.00158;1.46;350
2946;427;0.0485;0.0115;0.00158;1.46;350
2948;427;0.0485;0.0115;0.00158;1.46;350
2950;426;0.0485;0.0115;0.00158;1.46;350
2952;426;0.0485;0.0115;0.00158;1.46;350
2954;426;0.0485;0.0115;0.00158;1.46;350
2956;426;0.0485;0.0115;0.00158;1.46;350
2958;426;0.0485;0.0115;0.00158;1.46;350
2960;426;0.0485;0.0115;0.00158;1.46;350
2962;426;0.0485;0.0115;0.00158;1.46;350
2964;426;0.0485;0.0115;0.00158;1.45;350
2966;426;0.0485;0.0115;0.00158;1.46;350
2968;426;0.0485;0.0115;0.00158;1.45;350
2970;426;0.0485;0.0115;0.00158;1.45;350
2972;426;0.0485;0.0115;0.00158;1.46;350
2974;426;0.0485;0.0115;0.00158;1.46;350
2976;426;0.0485;0.0115;0.00158;1.45;350
2978;425;0.0485;0.0115;0.00158;1.45;350
2980;425;0.0485;0.0115;0.00158;1.45;350
2982;425;0.0485;0.0115;0.00158;1.46;350
2984;425;0.0485;0.0115;0.00158;1.45;350
2986;425;0.0485;0.0115;0.00158;1.45;350
2988;425;0.0485;0.0115;0.00158;1.45;350
2990;425;0.0485;0.0115;0.00158;1.46;350
2992;425;0.0485;0.0115;0.00158;1.45;350
2994;425;0.0485;0.0115;0.00158;1.45;350
2996;425;0.0485;0.0115;0.00158;1.45;350
2998;425;0.0485;0.0115;0.00158;1.45;350
3000;425;0.0485;0.0115;0.00158;1.45;350
3002;425;0.0485;0.0115;0.00158;1.45;350
3004;425;0.0485;0.0115;0.00158;1.45;350
3006;425;0.0485;0.0115;0.00158;1.45;350
3008;425;0.0485;0.0115;0.00158;1.45;350
3010;425;0.0485;0.0115;0.00158;1.45;350
3012;424;0.0485;0.0115;0.00158;1.45;350
3014;424;0.0485;0.0115;0.00158;1.45;350
3016;424;0.0485;0.0115;0.00158;1.45;350
3018;424;0.0485;0.0115;0.00158;1.45;350
3020;424;0.0485;0.0115;0.00158;1.45;350
3022;424;0.0485;0.0115;0.00158;1.45;350
3024;424;0.0485;0.0115;0.00158;1.45;350
3026;424;0.0485;0.0115;0.00158;1.45;350
3028;424;0.0485;0.0115;0.00158;1.45;350
3030;424;0.0485;0.0115;0.00158;1.45;350
3032;424;0.0485;0.0115;0.00158;1.45;350
3034;424;0.0485;0.0115;0.00158;1.45;350
3036;424;0.0485;0.0115;0.00158;1.45;350
3038;424;0.0485;0.0115;0.00158;1.45;350
3040;424;0.0485;0.0115;0.00158;1.45;350
3042;424;0.0485;0.0115;0.00158;1.45;350
3044;424;0.0485;0.0115;0.00158;1.45;350
3046;424;0.0485;0.0115;0.00158;1.45;350
3048;424;0.0485;0.0115;0.00158;1.45;350
3050;424;0.0485;0.0115;0.00158;1.45;350
3052;423;0.0485;0.0115;0.00158;1.45;350
3054;423;0.0485;0.0115;0.00158;1.45;350
3056;423;0.0485;0.0115;0.00158;1.45;350
3058;423;0.0485;0.0115;0.00158;1.45;350
3060;423;0.0485;0.0115;0.00158;1.45;350
3062;423;0.0485;0.0115;0.00158;1.45;350
3064;423;0.0485;0.0115;0.00158;1.45;350
3066;423;0.0485;0.0115;0.00158;1.45;350
3068;423;0.0485;0.0115;0.00158;1.45;350
3070;423;0.0485;0.0115;0.00158;1.45;350
3072;423;0.0485;0.0115;0.00158;1.45;350
3074;423;0.0485;0.0115;0.00158;1.45;350
3076;423;0.0485;0.0115;0.00158;1.45;350
3078;423;0.0485;0.0115;0.00158;1.45;350
3080;423;0.0485;0.0115;0.00158;1.44;350
3082;424;0.0485;0.0115;0.00158;1.45;350
3084;424;0.0485;0.0115;0.00158;1.45;350
3086;424;0.0485;0.0115;0.00158;1.45;350
3088;424;0.0485;0.0115;0.00158;1.45;350
3090;424;0.0485;0.0115;0.00158;1.44;350
3092;424;0.0485;0.0115;0.00158;1.45;350
3094;424;0.0485;0.0115;0.00158;1.45;350
3096;424;0.0485;0.0115;0.00158;1.45;350
3098;424;0.0485;0.0115;0.00158;1.45;350
3100;424;0.0485;0.0115;0.00158;1.44;350
3102;424;0.0485;0.0115;0.00158;1.44;350
3104;424;0.0485;0.0115;0.00158;1.44;350
3106;424;0.0485;0.0115;0.00158;1.45;350
3108;424;0.0485;0.0115;0.00158;1.45;350
3110;424;0.0485;0.0115;0.00158;1.44;350
3112;424;0.0485;0.0115;0.00158;1.44;350
3114;424;0.0485;0.0115;0.00158;1.44;350
3116;424;0.0485;0.0115;0.00158;1.44;350
3118;424;0.0485;0.0115;0.00158;1.44;350
3120;424;0.0485;0.0115;0.00158;1.44;350
3122;424;0.0485;0.0115;0.00158;1.44;350
3124;423;0.0485;0.0115;0.00158;1.44;350
3126;423;0.0485;0.0115;0.00158;1.44;350
3128;423;0.0485;0.0115;0.00158;1.44;350
3130;423;0.0485;0.0115;0.00158;1.44;350
3132;423;0.0485;0.0115;0.00158;1.44;350
3134;423;0.0485;0.0115;0.00158;1.44;350
3136;423;0.0485;0.0115;0.00158;1.44;350
3138;423;0.0485;0.0115;0.00158;1.44;350
3140;423;0.0485;0.0115;0.00158;1.43;350
3142;423;0.0485;0.0115;0.00158;1.44;350
3144;423;0.0485;0.0115;0.00158;1.44;350
3146;423;0.0485;0.0115;0.00158;1.44;350
3148;423;0.0485;0.0115;0.00158;1.43;350
3150;423;0.0485;0.0115;0.00158;1.43;350
3152;422;0.0485;0.0115;0.00158;1.43;350
3154;422;0.0485;0.0115;0.00158;1.43;350
3156;422;0.0485;0.0115;0.00158;1.43;350
3158;422;0.0485;0.0115;0.00158;1.43;350
3160;422;0.0485;0.0115;0.00158;1.43;350
3162;422;0.0485;0.0115;0.00158;1.43;350
3164;422;0.0485;0.0115;0.00158;1.43;350
3166;422;0.0485;0.0115;0.00158;1.43;350
3168;422;0.0485;0.0115;0.00158;1.43;350
3170;422;0.0485;0.0115;0.00158;1.43;350
3172;422;0.0485;0.0115;0.00158;1.43;350
3174;422;0.0485;0.0115;0.00158;1.43;350
3176;422;0.0485;0.0115;0.00158;1.43;350
3178;422;0.0485;0.0115;0.00158;1.43;350
3180;422;0.0485;0.0115;0.00158;1.43;350
3182;421;0.0485;0.0115;0.00158;1.43;350
3184;421;0.0485;0.0115;0.00158;1.43;350
3186;421;0.0485;0.0115;0.00158;1.43;350
3188;421;0.0485;0.0115;0.00158;1.43;350
3190;421;0.0485;0.0115;0.00158;1.43;350
3192;421;0.0485;0.0115;0.00158;1.43;350
3194;421;0.0485;0.0115;0.00158;1.43;350
3196;421;0.0485;0.0115;0.00158;1.43;350
3198;421;0.0485;0.0115;0.00158;1.42;350
3200;421;0.0485;0.0115;0.00158;1.43;350
3202;420;0.0485;0.0115;0.00158;1.42;350
3204;421;0.0485;0.0115;0.00158;1.42;350
3206;420;0.0485;0.0115;0.00158;1.42;350
3208;420;0.0485;0.0115;0.00158;1.42;350
3210;420;0.0485;0.0115;0.00158;1.42;350
3212;420;0.0485;0.0115;0.00158;1.42;350
3214;420;0.0485;0.0115;0.00158;1.42;350
3216;420;0.0485;0.0115;0.00158;1.42;350
3218;421;0.0485;0.0115;0.00158;1.42;350
3220;421;0.0485;0.0115;0.00158;1.42;350
3222;421;0.0485;0.0115;0.00158;1.42;350
3224;421;0.0485;0.0115;0.00158;1.42;350
3226;421;0.0485;0.0115;0.00158;1.42;350
3228;421;0.0485;0.0115;0.00158;1.42;350
3230;420;0.0485;0.0115;0.00158;1.42;350
3232;420;0.0485;0.0115;0.00158;1.42;350
3234;420;0.0485;0.0115;0.00158;1.42;350
3236;420;0.0485;0.0115;0.00158;1.42;350
3238;420;0.0485;0.0115;0.00158;1.42;350
3240;420;0.0485;0.0115;0.00158;1.42;350
3242;420;0.0485;0.0115;0.00158;1.42;350
3244;420;0.0485;0.0115;0.00158;1.42;350
3246;420;0.0485;0.0115;0.00158;1.42;350
3248;420;0.0485;0.0115;0.00158;1.42;350
3250;420;0.0485;0.0115;0.00158;1.41;350
3252;420;0.0485;0.0115;0.00158;1.42;350
3254;420;0.0485;0.0115;0.00158;1.42;350
3256;420;0.0485;0.0115;0.00158;1.41;350
3258;420;0.0485;0.0115;0.00158;1.42;350
3260;420;0.0485;0.0115;0.00158;1.41;350
3262;420;0.0485;0.0115;0.00158;1.41;350
3264;420;0.0485;0.0115;0.00158;1.42;350
3266;420;0.0485;0.0115;0.00158;1.41;350
3268;420;0.0485;0.0115;0.00158;1.42;350
3270;420;0.0485;0.0115;0.00158;1.41;350
3272;420;0.0485;0.0115;0.00158;1.41;350
3274;420;0.0485;0.0115;0.00158;1.41;350
3276;420;0.0485;0.0115;0.00158;1.41;350
3278;420;0.0485;0.0115;0.00158;1.41;350
3280;420;0.0485;0.0115;0.00158;1.41;350
3282;420;0.0485;0.0115;0.00158;1.41;350
3284;420;0.0485;0.0115;0.00158;1.41;350
3286;420;0.0485;0.0115;0.00158;1.41;350
3288;419;0.0485;0.0115;0.00158;1.41;350
3290;419;0.0485;0.0115;0.00158;1.41;350
3292;419;0.0485;0.0115;0.00158;1.41;350
3294;419;0.0485;0.0115;0.00158;1.41;350
3296;419;0.0485;0.0115;0.00158;1.41;350
3298;419;0.0485;0.0115;0.00158;1.41;350
3300;419;0.0485;0.0115;0.00158;1.41;350
3302;419;0.0485;0.0115;0.00158;1.4;350
3304;419;0.0485;0.0115;0.00158;1.41;350
3306;419;0.0485;0.0115;0.00158;1.4;350
3308;419;0.0485;0.0115;0.00158;1.4;350
3310;419;0.0485;0.0115;0.00158;1.4;350
3312;419;0.0485;0.0115;0.00158;1.4;350
3314;419;0.0485;0.0115;0.00158;1.4;350
3316;419;0.0485;0.0115;0.00158;1.4;350
3318;419;0.0485;0.0115;0.00158;1.4;350
3320;419;0.0485;0.0115;0.00158;1.4;350
3322;419;0.0485;0.0115;0.00158;1.4;350
3324;419;0.0485;0.0115;0.00158;1.4;350
3326;418;0.0485;0.0115;0.00158;1.4;350
3328;419;0.0485;0.0115;0.00158;1.41;350
3330;419;0.0485;0.0115;0.00158;1.4;350
3332;419;0.0485;0.0115;0.00158;1.4;350
3334;419;0.0485;0.0115;0.00158;1.4;350
3336;419;0.0485;0.0115;0.00158;1.4;350
3338;419;0.0485;0.0115;0.00158;1.4;350
3340;419;0.0485;0.0115;0.00158;1.4;350
3342;419;0.0485;0.0115;0.00158;1.4;350
3344;418;0.0485;0.0115;0.00158;1.4;350
3346;418;0.0485;0.0115;0.00158;1.4;350
3348;418;0.0485;0.0115;0.00158;1.4;350
3350;418;0.0485;0.0115;0.00158;1.4;350
3352;418;0.0485;0.0115;0.00158;1.4;350
3354;418;0.0485;0.0115;0.00158;1.4;350
3356;419;0.0485;0.0115;0.00158;1.4;350
3358;419;0.0485;0.0115;0.00158;1.4;350
3360;419;0.0485;0.0115;0.00158;1.4;350
3362;419;0.0485;0.0115;0.00158;1.4;350
3364;419;0.0485;0.0115;0.00158;1.4;350
3366;419;0.0485;0.0115;0.00158;1.4;350
3368;419;0.0485;0.0115;0.00158;1.4;350
3370;419;0.0485;0.0115;0.00158;1.39;350
3372;419;0.0485;0.0115;0.00158;1.4;350
3374;419;0.0485;0.0115;0.00158;1.39;350
3376;419;0.0485;0.0115;0.00158;1.4;350
3378;419;0.0485;0.0115;0.00158;1.39;350
3380;419;0.0485;0.0115;0.00158;1.39;350
3382;419;0.0485;0.0115;0.00158;1.39;350
3384;419;0.0485;0.0115;0.00158;1.39;350
3386;419;0.0485;0.0115;0.00158;1.39;350
3388;419;0.0485;0.0115;0.00158;1.39;350
3390;419;0.0485;0.0115;0.00158;1.39;350
3392;419;0.0485;0.0115;0.00158;1.39;350
3394;419;0.0485;0.0115;0.00158;1.39;350
3396;419;0.0485;0.0115;0.00158;1.39;350
3398;418;0.0485;0.0115;0.00158;1.39;350
3400;419;0.0485;0.0115;0.00158;1.39;350
3402;418;0.0485;0.0115;0.00158;1.39;350
3404;418;0.0485;0.0115;0.00158;1.39;350
3406;419;0.0485;0.0115;0.00158;1.39;350
3408;419;0.0485;0.0115;0.00158;1.39;350
3410;419;0.0485;0.0115;0.00158;1.39;350
3412;419;0.0485;0.0115;0.00158;1.39;350
3414;419;0.0485;0.0115;0.00158;1.39;350
3416;419;0.0485;0.0115;0.00158;1.39;350
3418;418;0.0485;0.0115;0.00158;1.39;350
3420;418;0.0485;0.0115;0.00158;1.39;350
3422;418;0.0485;0.0115;0.00158;1.39;350
3424;418;0.0485;0.0115;0.00158;1.39;350
3426;418;0.0485;0.0115;0.00158;1.39;350
3428;418;0.0485;0.0115;0.00158;1.38;350
3430;418;0.0485;0.0115;0.00158;1.38;350
3432;418;0.0485;0.0115;0.00158;1.39;350
3434;418;0.0485;0.0115;0.00158;1.38;350
3436;418;0.0485;0.0115;0.00158;1.39;350
3438;418;0.0485;0.0115;0.00158;1.38;350
3440;418;0.0485;0.0115;0.00158;1.39;350
3442;418;0.0485;0.0115;0.00158;1.38;350
3444;418;0.0485;0.0115;0.00158;1.39;350
3446;418;0.0485;0.0115;0.00158;1.38;350
3448;418;0.0485;0.0115;0.00158;1.38;350
3450;418;0.0485;0.0115;0.00158;1.38;350
3452;418;0.0485;0.0115;0.00158;1.38;350
3454;418;0.0485;0.0115;0.00158;1.38;350
3456;418;0.0485;0.0115;0.00158;1.38;350
3458;418;0.0485;0.0115;0.00158;1.38;350
3460;418;0.0485;0.0115;0.00158;1.38;350
3462;418;0.0485;0.0115;0.00158;1.38;350
3464;418;0.0485;0.0115;0.00158;1.38;350
3466;418;0.0485;0.0115;0.00158;1.38;350
3468;418;0.0485;0.0115;0.00158;1.38;350
3470;418;0.0485;0.0115;0.00158;1.38;350
3472;418;0.0485;0.0115;0.00158;1.38;350
3474;418;0.0485;0.0115;0.00158;1.38;350
3476;418;0.0485;0.0115;0.00158;1.38;350
3478;418;0.0485;0.0115;0.00158;1.38;350
3480;418;0.0485;0.0115;0.00158;1.38;350
3482;418;0.0485;0.0115;0.00158;1.38;350
3484;418;0.0485;0.0115;0.00158;1.38;350
3486;418;0.0485;0.0115;0.00158;1.38;350
3488;418;0.0485;0.0115;0.00158;1.38;350
3490;418;0.0485;0.0115;0.00158;1.38;350
3492;418;0.0485;0.0115;0.00158;1.38;350
3494;419;0.0485;0.0115;0.00158;1.37;350
3496;419;0.0485;0.0115;0.00158;1.37;350
3498;418;0.0485;0.0115;0.00158;1.38;350
3500;418;0.0485;0.0115;0.00158;1.37;350
3502;418;0.0485;0.0115;0.00158;1.37;350
3504;418;0.0485;0.0115;0.00158;1.37;350
3506;419;0.0485;0.0115;0.00158;1.37;350
3508;418;0.0485;0.0115;0.00158;1.37;350
3510;419;0.0485;0.0115;0.00158;1.37;350
3512;418;0.0485;0.0115;0.00158;1.37;350
3514;418;0.0485;0.0115;0.00158;1.37;350
3516;418;0.0485;0.0115;0.00158;1.37;350
3518;418;0.0485;0.0115;0.00158;1.38;350
3520;418;0.0485;0.0115;0.00158;1.37;350
3522;418;0.0485;0.0115;0.00158;1.37;350
3524;418;0.0485;0.0115;0.00158;1.37;350
3526;418;0.0485;0.0115;0.00158;1.37;350
3528;418;0.0485;0.0115;0.00158;1.37;350
3530;418;0.0485;0.0115;0.00158;1.37;350
3532;418;0.0485;0.0115;0.00158;1.37;350
3534;418;0.0485;0.0115;0.00158;1.37;350
3536;418;0.0485;0.0115;0.00158;1.37;350
3538;418;0.0485;0.0115;0.00158;1.37;350
3540;418;0.0485;0.0115;0.00158;1.37;350
3542;418;0.0485;0.0115;0.00158;1.37;350
3544;418;0.0485;0.0115;0.00158;1.37;350
3546;418;0.0485;0.0115;0.00158;1.37;350
3548;418;0.0485;0.0115;0.00158;1.37;350
3550;418;0.0485;0.0115;0.00158;1.37;350
3552;418;0.0485;0.0115;0.00158;1.37;350
3554;418;0.0485;0.0115;0.00158;1.36;350
3556;418;0.0485;0.0115;0.00158;1.37;350
3558;418;0.0485;0.0115;0.00158;1.36;350
3560;418;0.0485;0.0115;0.00158;1.37;350
3562;418;0.0485;0.0115;0.00158;1.37;350
3564;418;0.0485;0.0115;0.00158;1.36;350
3566;418;0.0485;0.0115;0.00158;1.36;350
3568;418;0.0485;0.0115;0.00158;1.36;350
3570;418;0.0485;0.0115;0.00158;1.36;350
3572;418;0.0485;0.0115;0.00158;1.36;350
3574;418;0.0485;0.0115;0.00158;1.36;350
3576;418;0.0485;0.0115;0.00158;1.37;350
3578;418;0.0485;0.0115;0.00158;1.36;350
3580;418;0.0485;0.0115;0.00158;1.36;350
3582;418;0.0485;0.0115;0.00158;1.36;350
3584;418;0.0485;0.0115;0.00158;1.36;350
3586;418;0.0485;0.0115;0.00158;1.36;350
3588;418;0.0485;0.0115;0.00158;1.36;350
3590;418;0.0485;0.0115;0.00158;1.36;350
3592;418;0.0485;0.0115;0.00158;1.36;350
3594;418;0.0485;0.0115;0.00158;1.36;350
3596;418;0.0485;0.0115;0.00158;1.36;350
3598;418;0.0485;0.0115;0.00158;1.36;350
3600;418;0.0485;0.0115;0.00158;1.36;350
3602;418;0.0485;0.0115;0.00158;1.36;350
3604;418;0.0485;0.0115;0.00158;1.36;350
3606;418;0.0485;0.0115;0.00158;1.36;350
3608;418;0.0485;0.0115;0.00158;1.36;350
3610;418;0.0485;0.0115;0.00158;1.36;350
3612;418;0.0485;0.0115;0.00158;1.36;350
3614;418;0.0485;0.0115;0.00158;1.35;350
3616;418;0.0485;0.0115;0.00158;1.36;350
3618;418;0.0485;0.0115;0.00158;1.35;350
3620;417;0.0485;0.0115;0.00158;1.35;350
3622;417;0.0485;0.0115;0.00158;1.35;350
3624;418;0.0485;0.0115;0.00158;1.35;350
3626;417;0.0485;0.0115;0.00158;1.35;350
3628;418;0.0485;0.0115;0.00158;1.35;350
3630;417;0.0485;0.0115;0.00158;1.35;350
3632;418;0.0485;0.0115;0.00158;1.35;350
3634;418;0.0485;0.0115;0.00158;1.35;350
3636;418;0.0485;0.0115;0.00158;1.35;350
3638;418;0.0485;0.0115;0.00158;1.35;350
3640;418;0.0485;0.0115;0.00158;1.35;350
3642;418;0.0485;0.0115;0.00158;1.34;350
3644;418;0.0485;0.0115;0.00158;1.35;350
3646;418;0.0485;0.0115;0.00158;1.35;350
3648;418;0.0485;0.0115;0.00158;1.35;350
3650;418;0.0485;0.0115;0.00158;1.35;350
3652;418;0.0485;0.0115;0.00158;1.34;350
3654;418;0.0485;0.0115;0.00158;1.35;350
3656;418;0.0485;0.0115;0.00158;1.34;350
3658;418;0.0485;0.0115;0.00158;1.34;350
3660;418;0.0485;0.0115;0.00158;1.34;350
3662;418;0.0485;0.0115;0.00158;1.34;350
3664;418;0.0485;0.0115;0.00158;1.34;350
3666;418;0.0485;0.0115;0.00158;1.34;350
3668;418;0.0485;0.0115;0.00158;1.34;350
3670;418;0.0485;0.0115;0.00158;1.34;350
3672;418;0.0485;0.0115;0.00158;1.34;350
3674;418;0.0485;0.0115;0.00158;1.34;350
3676;418;0.0485;0.0115;0.00158;1.34;350
3678;418;0.0485;0.0115;0.00158;1.34;350
3680;418;0.0485;0.0115;0.00158;1.34;350
3682;418;0.0485;0.0115;0.00158;1.34;350
3684;418;0.0485;0.0115;0.00158;1.34;350
3686;418;0.0485;0.0115;0.00158;1.34;350
3688;417;0.0485;0.0115;0.00158;1.34;350
3690;417;0.0485;0.0115;0.00158;1.33;350
3692;417;0.0485;0.0115;0.00158;1.33;350
3694;417;0.0485;0.0115;0.00158;1.34;350
3696;417;0.0485;0.0115;0.00158;1.33;350
3698;417;0.0485;0.0115;0.00158;1.33;350
3700;417;0.0485;0.0115;0.00158;1.33;350
3702;417;0.0485;0.0115;0.00158;1.33;350
3704;417;0.0485;0.0115;0.00158;1.33;350
3706;417;0.0485;0.0115;0.00158;1.33;350
3708;417;0.0485;0.0115;0.00158;1.33;350
3710;417;0.0485;0.0115;0.00158;1.33;350
3712;417;0.0485;0.0115;0.00158;1.33;350
3714;417;0.0485;0.0115;0.00158;1.33;350
3716;417;0.0485;0.0115;0.00158;1.33;350
3718;417;0.0485;0.0115;0.00158;1.33;350
3720;417;0.0485;0.0115;0.00158;1.33;350
3722;417;0.0485;0.0115;0.00158;1.33;350
3724;417;0.0485;0.0115;0.00158;1.33;350
3726;417;0.0485;0.0115;0.00158;1.32;350
3728;417;0.0485;0.0115;0.00158;1.33;350
3730;417;0.0485;0.0115;0.00158;1.32;350
3732;417;0.0485;0.0115;0.00158;1.33;350
3734;417;0.0485;0.0115;0.00158;1.33;350
3736;417;0.0485;0.0115;0.00158;1.32;350
3738;417;0.0485;0.0115;0.00158;1.33;350
3740;417;0.0485;0.0115;0.00158;1.32;350
3742;417;0.0485;0.0115;0.00158;1.32;350
3744;417;0.0485;0.0115;0.00158;1.32;350
3746;417;0.0485;0.0115;0.00158;1.33;350
3748;416;0.0485;0.0115;0.00158;1.32;350
3750;416;0.0485;0.0115;0.00158;1.32;350
3752;416;0.0485;0.0115;0.00158;1.32;350
3754;416;0.0485;0.0115;0.00158;1.32;350
3756;416;0.0485;0.0115;0.00158;1.32;350
3758;416;0.0485;0.0115;0.00158;1.32;350
3760;416;0.0485;0.0115;0.00158;1.32;350
3762;416;0.0485;0.0115;0.00158;1.32;350
3764;416;0.0485;0.0115;0.00158;1.31;350
3766;416;0.0485;0.0115;0.00158;1.32;350
3768;416;0.0485;0.0115;0.00158;1.32;350
3770;417;0.0485;0.0115;0.00158;1.31;350
3772;417;0.0485;0.0115;0.00158;1.32;350
3774;417;0.0485;0.0115;0.00158;1.31;350
3776;417;0.0485;0.0115;0.00158;1.31;350
3778;417;0.0485;0.0115;0.00158;1.31;350
3780;417;0.0485;0.0115;0.00158;1.31;350
3782;417;0.0485;0.0115;0.00158;1.31;350
3784;417;0.0485;0.0115;0.00158;1.31;350
3786;417;0.0485;0.0115;0.00158;1.31;350
3788;417;0.0485;0.0115;0.00158;1.3;350
3790;417;0.0485;0.0115;0.00158;1.3;350
3792;417;0.0485;0.0115;0.00158;1.3;350
3794;417;0.0485;0.0115;0.00158;1.3;350
3796;416;0.0485;0.0115;0.00158;1.3;350
3798;416;0.0485;0.0115;0.00158;1.3;350
3800;416;0.0485;0.0115;0.00158;1.3;350
3802;416;0.0485;0.0115;0.00158;1.3;350
3804;416;0.0485;0.0115;0.00158;1.3;350
3806;416;0.0485;0.0115;0.00158;1.3;350
3808;416;0.0485;0.0115;0.00158;1.29;350
3810;416;0.0485;0.0115;0.00158;1.3;350
3812;416;0.0485;0.0115;0.00158;1.29;350
3814;416;0.0485;0.0115;0.00158;1.3;350
3816;416;0.0485;0.0115;0.00158;1.3;350
3818;415;0.0485;0.0115;0.00158;1.29;350
3820;415;0.0485;0.0115;0.00158;1.29;350
3822;415;0.0485;0.0115;0.00158;1.29;350
3824;415;0.0485;0.0115;0.00158;1.29;350
3826;415;0.0485;0.0115;0.00158;1.29;350
3828;415;0.0485;0.0115;0.00158;1.29;350
3830;415;0.0485;0.0115;0.00158;1.29;350
3832;415;0.0485;0.0115;0.00158;1.29;350
3834;415;0.0485;0.0115;0.00158;1.29;350
3836;415;0.0485;0.0115;0.00158;1.29;350
3838;415;0.0485;0.0115;0.00158;1.29;350
3840;415;0.0485;0.0115;0.00158;1.29;350
3842;415;0.0485;0.0115;0.00158;1.28;350
3844;414;0.0485;0.0115;0.00158;1.28;350
3846;414;0.0485;0.0115;0.00158;1.28;350
3848;414;0.0485;0.0115;0.00158;1.29;350
3850;414;0.0485;0.0115;0.00158;1.29;350
3852;414;0.0485;0.0115;0.00158;1.28;350
3854;414;0.0485;0.0115;0.00158;1.29;350
3856;414;0.0485;0.0115;0.00158;1.28;350
3858;414;0.0485;0.0115;0.00158;1.28;350
3860;414;0.0485;0.0115;0.00158;1.28;350
3862;414;0.0485;0.0115;0.00158;1.28;350
3864;414;0.0485;0.0115;0.00158;1.28;350
3866;414;0.0485;0.0115;0.00158;1.28;350
3868;414;0.0485;0.0115;0.00158;1.28;350
3870;414;0.0485;0.0115;0.00158;1.28;350
3872;414;0.0485;0.0115;0.00158;1.28;350
3874;414;0.0485;0.0115;0.00158;1.28;350
3876;414;0.0485;0.0115;0.00158;1.27;350
3878;414;0.0485;0.0115;0.00158;1.28;350
3880;414;0.0485;0.0115;0.00158;1.27;350
3882;414;0.0485;0.0115;0.00158;1.28;350
3884;414;0.0485;0.0115;0.00158;1.27;350
3886;414;0.0485;0.0115;0.00158;1.27;350
3888;414;0.0485;0.0115;0.00158;1.27;350
3890;414;0.0485;0.0115;0.00158;1.27;350
3892;414;0.0485;0.0115;0.00158;1.27;350
3894;414;0.0485;0.0115;0.00158;1.27;350
3896;414;0.0485;0.0115;0.00158;1.27;350
3898;413;0.0485;0.0115;0.00158;1.27;350
3900;413;0.0485;0.0115;0.00158;1.26;350
3902;413;0.0485;0.0115;0.00158;1.27;350
3904;413;0.0485;0.0115;0.00158;1.27;350
3906;413;0.0485;0.0115;0.00158;1.26;350
3908;414;0.0485;0.0115;0.00158;1.27;350
3910;414;0.0485;0.0115;0.00158;1.26;350
3912;414;0.0485;0.0115;0.00158;1.26;350
3914;414;0.0485;0.0115;0.00158;1.26;350
3916;414;0.0485;0.0115;0.00158;1.26;350
3918;414;0.0485;0.0115;0.00158;1.26;350
3920;414;0.0485;0.0115;0.00158;1.26;350
3922;414;0.0485;0.0115;0.00158;1.26;350
3924;414;0.0485;0.0115;0.00158;1.26;350
3926;414;0.0485;0.0115;0.00158;1.26;350
3928;414;0.0485;0.0115;0.00158;1.26;350
3930;413;0.0485;0.0115;0.00158;1.26;350
3932;414;0.0485;0.0115;0.00158;1.26;350
3934;414;0.0485;0.0115;0.00158;1.25;350
3936;413;0.0485;0.0115;0.00158;1.25;350
3938;414;0.0485;0.0115;0.00158;1.25;350
3940;414;0.0485;0.0115;0.00158;1.25;350
3942;413;0.0485;0.0115;0.00158;1.26;350
3944;413;0.0485;0.0115;0.00158;1.25;350
3946;413;0.0485;0.0115;0.00158;1.25;350
3948;413;0.0485;0.0115;0.00158;1.25;350
3950;413;0.0485;0.0115;0.00158;1.25;350
3952;413;0.0485;0.0115;0.00158;1.25;350
3954;413;0.0485;0.0115;0.00158;1.25;350
3956;413;0.0485;0.0115;0.00158;1.25;350
3958;413;0.0485;0.0115;0.00158;1.25;350
3960;413;0.0485;0.0115;0.00158;1.25;350
3962;413;0.0485;0.0115;0.00158;1.25;350
3964;413;0.0485;0.0115;0.00158;1.25;350
3966;413;0.0485;0.0115;0.00158;1.25;350
3968;413;0.0485;0.0115;0.00158;1.25;350
3970;413;0.0485;0.0115;0.00158;1.25;350
3972;413;0.0485;0.0115;0.00158;1.25;350
3974;413;0.0485;0.0115;0.00158;1.25;350
3976;413;0.0485;0.0115;0.00158;1.25;350
3978;413;0.0485;0.0115;0.00158;1.25;350
3980;413;0.0485;0.0115;0.00158;1.25;350
3982;413;0.0485;0.0115;0.00158;1.25;350
3984;413;0.0485;0.0115;0.00158;1.24;350
3986;413;0.0485;0.0115;0.00158;1.24;350
3988;413;0.0485;0.0115;0.00158;1.24;350
3990;413;0.0485;0.0115;0.00158;1.24;350
3992;413;0.0485;0.0115;0.00158;1.24;350
3994;413;0.0485;0.0115;0.00158;1.24;350
3996;413;0.0485;0.0115;0.00158;1.24;350
3998;413;0.0485;0.0115;0.00158;1.24;350
4000;413;0.0485;0.0115;0.00158;1.24;350
4002;413;0.0485;0.0115;0.00158;1.24;350
4004;413;0.0485;0.0115;0.00158;1.24;350
4006;413;0.0485;0.0115;0.00158;1.24;350
4008;413;0.0485;0.0115;0.00158;1.24;350
4010;413;0.0485;0.0115;0.00158;1.24;350
4012;413;0.0485;0.0115;0.00158;1.24;350
4014;413;0.0485;0.0115;0.00158;1.24;350
4016;413;0.0485;0.0115;0.00158;1.24;350
4018;413;0.0485;0.0115;0.00158;1.24;350
4020;413;0.0485;0.0115;0.00158;1.24;350
4022;413;0.0485;0.0115;0.00158;1.24;350
4024;413;0.0485;0.0115;0.00158;1.24;350
4026;414;0.0485;0.0115;0.00158;1.24;350
4028;413;0.0485;0.0115;0.00158;1.24;350
4030;414;0.0485;0.0115;0.00158;1.24;350
4032;414;0.0485;0.0115;0.00158;1.24;350
4034;414;0.0485;0.0115;0.00158;1.24;350
4036;414;0.0485;0.0102;0.00273;1.24;350
4038;414;0.0485;0.0101;0.00274;1.24;350
4040;414;0.0485;0.0102;0.00273;1.24;350
4042;414;0.0485;0.0102;0.00273;1.24;350
4044;414;0.0485;0.0102;0.00272;1.24;350
4046;415;0.0485;0.0102;0.00273;1.24;350
4048;415;0.0485;0.0102;0.00273;1.24;350
4050;415;0.0485;0.0102;0.00274;1.24;350
4052;415;0.0485;0.0102;0.00273;1.24;350
4054;415;0.0485;0.0102;0.00271;1.24;350
4056;415;0.0485;0.0102;0.0027;1.24;350
4058;415;0.0485;0.0102;0.00268;1.23;350
4060;415;0.0485;0.0103;0.00266;1.24;350
4062;415;0.0485;0.0102;0.00268;1.23;350
4064;415;0.0485;0.0103;0.00265;1.23;350
4066;415;0.0485;0.0103;0.00261;1.23;350
4068;415;0.0485;0.0103;0.0026;1.23;350
4070;415;0.0485;0.0104;0.00258;1.23;350
4072;415;0.0485;0.0104;0.00256;1.23;350
4074;415;0.0485;0.0104;0.00254;1.23;350
4076;415;0.0485;0.0104;0.00253;1.23;350
4078;416;0.0485;0.0105;0.0025;1.23;350
4080;416;0.0485;0.0105;0.00249;1.23;350
4082;416;0.0485;0.0105;0.00246;1.23;350
4084;416;0.0485;0.0105;0.00244;1.23;350
4086;416;0.0485;0.0106;0.00241;1.23;350
4088;416;0.0485;0.0106;0.00238;1.23;350
4090;416;0.0485;0.0106;0.00235;1.23;350
4092;416;0.0485;0.0107;0.00233;1.23;350
4094;416;0.0485;0.0107;0.00229;1.24;350
4096;416;0.0485;0.0107;0.00227;1.23;350
4098;416;0.0485;0.0108;0.00226;1.24;350
4100;416;0.0485;0.0108;0.00224;1.24;350
4102;417;0.0485;0.0108;0.00221;1.24;350
4104;417;0.0485;0.0108;0.00221;1.24;350
4106;417;0.0485;0.0109;0.00219;1.24;350
4108;417;0.0485;0.0109;0.00216;1.24;350
4110;417;0.0485;0.0109;0.00215;1.24;350
4112;417;0.0485;0.0109;0.00214;1.24;350
4114;417;0.0485;0.0109;0.00212;1.24;350
4116;417;0.0485;0.0109;0.00211;1.23;350
4118;417;0.0485;0.0110;0.00209;1.23;350
4120;417;0.0485;0.0110;0.00208;1.23;350
4122;417;0.0485;0.0110;0.00206;1.23;350
4124;417;0.0485;0.0110;0.00206;1.23;350
4126;418;0.0485;0.0110;0.00205;1.23;350
4128;418;0.0485;0.0110;0.00204;1.24;350
4130;418;0.0485;0.0110;0.00203;1.24;350
4132;418;0.0485;0.0110;0.00203;1.24;350
4134;418;0.0485;0.0110;0.00202;1.24;350
4136;418;0.0485;0.0111;0.002;1.23;350
4138;418;0.0485;0.0111;0.00199;1.23;350
4140;418;0.0485;0.0111;0.00198;1.23;350
4142;418;0.0485;0.0111;0.00199;1.23;350
4144;418;0.0485;0.0111;0.00197;1.23;350
4146;418;0.0485;0.0111;0.00197;1.23;350
4148;418;0.0485;0.0111;0.00196;1.23;350
4150;419;0.0485;0.0111;0.00193;1.23;350
4152;419;0.0485;0.0112;0.00191;1.23;350
4154;419;0.0485;0.0112;0.00192;1.23;350
4156;419;0.0485;0.0112;0.00192;1.23;350
4158;419;0.0485;0.0112;0.00192;1.23;350
4160;419;0.0485;0.0112;0.00192;1.23;350
4162;419;0.0485;0.0112;0.00191;1.23;350
4164;419;0.0485;0.0112;0.0019;1.23;350
4166;419;0.0485;0.0112;0.00188;1.23;350
4168;419;0.0485;0.0112;0.00186;1.23;350
4170;419;0.0485;0.0112;0.00186;1.23;350
4172;419;0.0485;0.0112;0.00187;1.23;350
4174;419;0.0485;0.0112;0.00187;1.23;350
4176;419;0.0485;0.0112;0.00187;1.23;350
4178;420;0.0485;0.0112;0.00187;1.23;350
4180;420;0.0485;0.0112;0.00185;1.23;350
4182;420;0.0485;0.0112;0.00186;1.23;350
4184;421;0.0485;0.0112;0.00187;1.23;350
4186;421;0.0485;0.0112;0.00187;1.23;350
4188;421;0.0485;0.0112;0.00185;1.23;350
4190;421;0.0485;0.0112;0.00185;1.23;350
4192;421;0.0485;0.0112;0.00187;1.23;350
4194;421;0.0485;0.0112;0.00187;1.23;350
4196;421;0.0485;0.0112;0.00187;1.23;350
4198;421;0.0485;0.0112;0.00186;1.23;350
4200;421;0.0485;0.0112;0.00185;1.23;350
4202;421;0.0485;0.0112;0.00186;1.23;350
4204;421;0.0485;0.0112;0.00186;1.23;350
4206;421;0.0485;0.0112;0.00185;1.23;350
4208;421;0.0485;0.0113;0.00183;1.23;350
4210;421;0.0485;0.0113;0.00182;1.23;350
4212;421;0.0485;0.0113;0.00183;1.23;350
4214;421;0.0485;0.0112;0.00184;1.23;350
4216;421;0.0485;0.0113;0.00181;1.23;350
4218;421;0.0485;0.0113;0.00182;1.23;350
4220;421;0.0485;0.0113;0.0018;1.23;350
4222;421;0.0485;0.0113;0.00182;1.23;350
4224;421;0.0485;0.0113;0.00181;1.23;350
4226;422;0.0485;0.0113;0.00179;1.23;350
4228;422;0.0485;0.0113;0.0018;1.23;350
4230;422;0.0485;0.0113;0.0018;1.23;350
4232;422;0.0485;0.0113;0.00181;1.23;350
4234;422;0.0485;0.0113;0.0018;1.23;350
4236;422;0.0485;0.0113;0.00178;1.23;350
4238;422;0.0485;0.0113;0.00179;1.23;350
4240;422;0.0485;0.0113;0.00181;1.23;350
4242;422;0.0485;0.0113;0.0018;1.23;350
4244;422;0.0485;0.0113;0.00179;1.23;350
4246;422;0.0485;0.0113;0.00181;1.23;350
4248;422;0.0485;0.0113;0.00182;1.23;350
4250;422;0.0485;0.0113;0.00179;1.23;350
4252;422;0.0485;0.0113;0.0018;1.23;350
4254;422;0.0485;0.0113;0.00181;1.23;350
4256;422;0.0485;0.0113;0.00181;1.23;350
4258;422;0.0485;0.0113;0.00182;1.23;350
4260;422;0.0485;0.0113;0.00182;1.23;350
4262;422;0.0485;0.0113;0.00182;1.23;350
4264;422;0.0485;0.0113;0.00182;1.23;350
4266;422;0.0485;0.0113;0.00183;1.23;350
4268;423;0.0485;0.0113;0.00179;1.23;350
4270;423;0.0485;0.0113;0.00181;1.23;350
4272;423;0.0485;0.0113;0.00183;1.23;350
4274;423;0.0485;0.0113;0.00182;1.23;350
4276;423;0.0485;0.0113;0.0018;1.23;350
4278;423;0.0485;0.0113;0.00181;1.23;350
4280;423;0.0485;0.0113;0.00183;1.23;350
4282;423;0.0485;0.0113;0.00183;1.23;350
4284;423;0.0485;0.0113;0.00181;1.23;350
4286;423;0.0485;0.0113;0.0018;1.23;350
4288;423;0.0485;0.0113;0.00181;1.23;350
4290;423;0.0485;0.0113;0.00182;1.23;350
4292;423;0.0485;0.0113;0.0018;1.23;350
4294;423;0.0485;0.0113;0.0018;1.23;350
4296;423;0.0485;0.0113;0.00178;1.23;350
4298;423;0.0485;0.0113;0.00179;1.23;350
4300;423;0.0485;0.0113;0.00181;1.23;350
4302;423;0.0485;0.0113;0.0018;1.23;350
4304;424;0.0485;0.0113;0.00181;1.23;350
4306;424;0.0485;0.0113;0.0018;1.23;350
4308;424;0.0485;0.0113;0.0018;1.23;350
4310;424;0.0485;0.0113;0.0018;1.23;350
4312;424;0.0485;0.0113;0.00182;1.23;350
4314;424;0.0485;0.0113;0.00181;1.23;350
4316;424;0.0485;0.0113;0.0018;1.23;350
4318;424;0.0485;0.0113;0.00182;1.23;350
4320;425;0.0485;0.0113;0.0018;1.23;350
4322;425;0.0485;0.0113;0.00179;1.23;350
4324;425;0.0485;0.0113;0.00181;1.23;350
4326;425;0.0485;0.0113;0.00179;1.23;350
4328;425;0.0485;0.0113;0.0018;1.23;350
4330;425;0.0485;0.0113;0.00182;1.23;350
4332;425;0.0485;0.0113;0.00182;1.23;350
4334;425;0.0485;0.0113;0.00181;1.23;350
4336;425;0.0485;0.0113;0.00181;1.23;350
4338;425;0.0485;0.0113;0.00179;1.23;350
4340;425;0.0485;0.0113;0.00182;1.23;350
4342;425;0.0485;0.0113;0.00181;1.23;350
4344;425;0.0485;0.0113;0.00181;1.23;350
4346;425;0.0485;0.0113;0.00179;1.23;350
4348;425;0.0485;0.0113;0.0018;1.23;350
4350;425;0.0485;0.0113;0.00179;1.23;350
4352;425;0.0485;0.0113;0.00178;1.23;350
4354;425;0.0485;0.0113;0.0018;1.23;350
4356;425;0.0485;0.0113;0.0018;1.23;350
4358;426;0.0485;0.0113;0.00179;1.23;350
4360;426;0.0485;0.0113;0.00182;1.22;350
4362;426;0.0485;0.0113;0.00179;1.23;350
4364;426;0.0485;0.0113;0.00181;1.23;350
4366;426;0.0485;0.0113;0.00181;1.23;350
4368;426;0.0485;0.0113;0.00178;1.23;350
4370;426;0.0485;0.0113;0.0018;1.23;350
4372;426;0.0485;0.0113;0.00178;1.23;350
4374;426;0.0485;0.0113;0.0018;1.23;350
4376;426;0.0485;0.0113;0.00178;1.23;350
4378;426;0.0485;0.0113;0.00179;1.23;350
4380;426;0.0485;0.0113;0.00178;1.23;350
4382;426;0.0485;0.0113;0.00179;1.23;350
4384;426;0.0485;0.0113;0.00178;1.23;350
4386;426;0.0485;0.0113;0.00178;1.23;350
4388;426;0.0485;0.0113;0.00178;1.23;350
4390;426;0.0485;0.0113;0.00178;1.23;350
4392;426;0.0485;0.0113;0.00178;1.23;350
4394;426;0.0485;0.0113;0.00178;1.23;350
4396;426;0.0485;0.0113;0.00178;1.23;350
4398;426;0.0485;0.0113;0.00177;1.23;350
4400;426;0.0485;0.0113;0.00178;1.23;350
4402;426;0.0485;0.0113;0.00177;1.23;350
4404;426;0.0485;0.0113;0.00179;1.22;350
4406;426;0.0485;0.0113;0.00179;1.23;350
4408;426;0.0485;0.0113;0.0018;1.22;350
4410;426;0.0485;0.0113;0.00178;1.22;350
4412;426;0.0485;0.0113;0.00179;1.22;350
4414;426;0.0485;0.0113;0.00179;1.23;350
4416;426;0.0485;0.0113;0.00177;1.23;350
4418;426;0.0485;0.0113;0.00178;1.23;350
4420;426;0.0485;0.0113;0.00178;1.23;350
4422;427;0.0485;0.0113;0.00179;1.23;350
4424;427;0.0485;0.0113;0.00179;1.22;350
4426;427;0.0485;0.0113;0.00176;1.23;350
4428;426;0.0485;0.0113;0.00178;1.22;350
4430;426;0.0485;0.0113;0.00178;1.23;350
4432;427;0.0485;0.0113;0.0018;1.22;350
4434;427;0.0485;0.0113;0.00176;1.23;350
4436;427;0.0485;0.0113;0.00178;1.22;350
4438;427;0.0485;0.0113;0.00176;1.23;350
4440;427;0.0485;0.0113;0.00178;1.23;350
4442;427;0.0485;0.0113;0.00176;1.22;350
4444;427;0.0485;0.0113;0.00176;1.22;350
4446;427;0.0485;0.0113;0.00176;1.22;350
4448;427;0.0485;0.0113;0.00178;1.22;350
4450;427;0.0485;0.0113;0.00175;1.22;350
4452;427;0.0485;0.0113;0.00177;1.23;350
4454;427;0.0485;0.0113;0.00176;1.22;350
4456;427;0.0485;0.0113;0.00176;1.23;350
4458;428;0.0485;0.0113;0.00177;1.23;350
4460;428;0.0485;0.0113;0.00177;1.23;350
4462;428;0.0485;0.0113;0.00176;1.22;350
4464;428;0.0485;0.0113;0.00177;1.22;350
4466;428;0.0485;0.0113;0.00176;1.23;350
4468;428;0.0485;0.0113;0.00177;1.22;350
4470;428;0.0485;0.0113;0.00178;1.23;350
4472;428;0.0485;0.0113;0.00177;1.22;350
4474;428;0.0485;0.0113;0.00178;1.23;350
4476;428;0.0485;0.0113;0.00177;1.22;350
4478;428;0.0485;0.0113;0.00177;1.22;350
4480;428;0.0485;0.0113;0.00177;1.22;350
4482;428;0.0485;0.0113;0.00179;1.22;350
4484;428;0.0485;0.0113;0.00177;1.22;350
4486;428;0.0485;0.0113;0.00178;1.22;350
4488;428;0.0485;0.0113;0.00178;1.23;350
4490;428;0.0485;0.0113;0.00177;1.22;350
4492;428;0.0485;0.0113;0.00177;1.22;350
4494;428;0.0485;0.0113;0.00179;1.22;350
4496;428;0.0485;0.0113;0.00179;1.22;350
4498;428;0.0485;0.0113;0.00178;1.22;350
4500;428;0.0485;0.0113;0.00176;1.22;350
4502;428;0.0485;0.0113;0.00178;1.23;350
4504;428;0.0485;0.0113;0.00176;1.22;350
4506;428;0.0485;0.0113;0.00177;1.22;350
4508;428;0.0485;0.0113;0.00176;1.23;350
4510;428;0.0485;0.0113;0.00178;1.22;350
4512;428;0.0485;0.0113;0.00177;1.22;350
4514;428;0.0485;0.0113;0.00178;1.22;350
4516;428;0.0485;0.0113;0.00178;1.23;350
4518;428;0.0485;0.0113;0.00177;1.22;350
4520;429;0.0485;0.0113;0.00178;1.22;350
4522;429;0.0485;0.0113;0.00177;1.22;350
4524;429;0.0485;0.0113;0.00176;1.22;350
4526;428;0.0485;0.0113;0.00175;1.22;350
4528;429;0.0485;0.0113;0.00178;1.22;350
4530;429;0.0485;0.0113;0.00178;1.22;350
4532;429;0.0485;0.0113;0.00177;1.22;350
4534;429;0.0485;0.0113;0.00178;1.22;350
4536;429;0.0485;0.0113;0.00176;1.22;350
4538;429;0.0485;0.0113;0.00177;1.22;350
4540;429;0.0485;0.0113;0.00178;1.22;350
4542;429;0.0485;0.0113;0.00176;1.22;350
4544;429;0.0485;0.0113;0.00177;1.22;350
4546;429;0.0485;0.0113;0.00177;1.22;350
4548;429;0.0485;0.0113;0.00177;1.22;350
4550;429;0.0485;0.0113;0.00178;1.22;350
4552;429;0.0485;0.0113;0.00178;1.23;350
4554;429;0.0485;0.0113;0.00178;1.22;350
4556;429;0.0485;0.0113;0.00178;1.22;350
4558;429;0.0485;0.0113;0.00179;1.22;350
4560;429;0.0485;0.0113;0.00177;1.22;350
4562;429;0.0485;0.0113;0.0018;1.22;350
4564;429;0.0485;0.0113;0.00178;1.22;350
4566;429;0.0485;0.0113;0.0018;1.22;350
4568;429;0.0485;0.0113;0.00179;1.22;350
4570;429;0.0485;0.0113;0.00179;1.22;350
4572;429;0.0485;0.0113;0.0018;1.22;350
4574;429;0.0485;0.0113;0.00179;1.22;350
4576;429;0.0485;0.0113;0.0018;1.22;350
4578;429;0.0485;0.0113;0.00177;1.22;350
4580;429;0.0485;0.0113;0.00177;1.22;350
4582;429;0.0485;0.0113;0.00179;1.22;350
4584;429;0.0485;0.0113;0.00178;1.22;350
4586;429;0.0485;0.0113;0.00179;1.22;350
4588;429;0.0485;0.0113;0.00178;1.22;350
4590;429;0.0485;0.0113;0.00177;1.23;350
4592;429;0.0485;0.0113;0.00179;1.23;350
4594;430;0.0485;0.0113;0.00177;1.22;350
4596;430;0.0485;0.0113;0.00179;1.22;350
4598;431;0.0485;0.0113;0.00179;1.22;350
4600;431;0.0485;0.0113;0.00179;1.23;350
4602;431;0.0485;0.0113;0.00177;1.22;350
4604;431;0.0485;0.0113;0.00177;1.22;350
4606;431;0.0485;0.0113;0.00178;1.22;350
4608;430;0.0485;0.0113;0.00179;1.22;350
4610;431;0.0485;0.0113;0.00179;1.22;350
4612;431;0.0485;0.0113;0.00178;1.22;350
4614;431;0.0485;0.0113;0.0018;1.22;350
4616;431;0.0485;0.0113;0.00179;1.22;350
4618;431;0.0485;0.0113;0.00177;1.22;350
4620;431;0.0485;0.0113;0.00177;1.22;350
4622;431;0.0485;0.0113;0.00178;1.22;350
4624;431;0.0485;0.0113;0.00176;1.22;350
4626;431;0.0485;0.0113;0.00179;1.22;350
4628;431;0.0485;0.0113;0.00176;1.22;350
4630;431;0.0485;0.0113;0.00176;1.22;350
4632;431;0.0485;0.0113;0.00176;1.22;350
4634;431;0.0485;0.0113;0.00177;1.22;350
4636;431;0.0485;0.0113;0.00177;1.22;350
4638;431;0.0485;0.0113;0.00177;1.22;350
4640;431;0.0485;0.0113;0.00178;1.23;350
4642;431;0.0485;0.0113;0.00177;1.22;350
4644;431;0.0485;0.0113;0.00179;1.22;350
4646;431;0.0485;0.0113;0.00179;1.22;350
4648;431;0.0485;0.0113;0.00179;1.22;350
4650;431;0.0485;0.0113;0.00179;1.22;350
4652;431;0.0485;0.0113;0.0018;1.22;350
4654;431;0.0485;0.0113;0.0018;1.22;350
4656;431;0.0485;0.0113;0.00178;1.22;350
4658;431;0.0485;0.0113;0.00178;1.22;350
4660;431;0.0485;0.0113;0.00179;1.22;350
4662;431;0.0485;0.0113;0.00178;1.22;350
4664;431;0.0485;0.0113;0.00178;1.22;350
4666;431;0.0485;0.0113;0.00179;1.22;350
4668;431;0.0485;0.0113;0.00177;1.22;350
4670;431;0.0485;0.0113;0.00178;1.22;350
4672;431;0.0485;0.0113;0.00177;1.22;350
4674;431;0.0485;0.0113;0.00177;1.22;350
4676;431;0.0485;0.0113;0.00178;1.22;350
4678;431;0.0485;0.0113;0.00175;1.22;350
4680;431;0.0485;0.0113;0.00177;1.22;350
4682;431;0.0485;0.0113;0.00175;1.22;350
4684;431;0.0485;0.0113;0.00177;1.22;350
4686;431;0.0485;0.0113;0.00176;1.22;350
4688;431;0.0485;0.0113;0.00177;1.22;350
4690;431;0.0485;0.0113;0.00176;1.22;350
4692;431;0.0485;0.0113;0.00176;1.22;350
4694;431;0.0485;0.0113;0.00177;1.22;350
4696;431;0.0485;0.0113;0.00175;1.22;350
4698;431;0.0485;0.0113;0.00175;1.22;350
4700;431;0.0485;0.0113;0.00178;1.22;350
4702;431;0.0485;0.0113;0.00177;1.22;350
4704;431;0.0485;0.0113;0.00178;1.22;350
4706;431;0.0485;0.0113;0.00178;1.22;350
4708;431;0.0485;0.0113;0.00178;1.22;350
4710;431;0.0485;0.0113;0.00177;1.22;350
4712;432;0.0485;0.0113;0.00177;1.22;350
4714;431;0.0485;0.0113;0.0018;1.22;350
4716;431;0.0485;0.0113;0.00177;1.22;350
4718;431;0.0485;0.0113;0.00179;1.22;350
4720;431;0.0485;0.0113;0.00177;1.22;350
4722;431;0.0485;0.0113;0.00178;1.22;350
4724;431;0.0485;0.0113;0.00176;1.22;350
4726;431;0.0485;0.0113;0.00178;1.22;350
4728;431;0.0485;0.0113;0.00176;1.22;350
4730;431;0.0485;0.0113;0.00176;1.22;350
4732;431;0.0485;0.0113;0.00176;1.22;350
4734;432;0.0485;0.0113;0.00178;1.22;350
4736;432;0.0485;0.0113;0.00177;1.22;350
4738;432;0.0485;0.0113;0.00177;1.22;350
4740;432;0.0485;0.0113;0.00178;1.22;350
4742;432;0.0485;0.0113;0.00178;1.22;350
4744;432;0.0485;0.0113;0.00175;1.22;350
4746;432;0.0485;0.0113;0.00177;1.22;350
4748;432;0.0485;0.0113;0.00176;1.22;350
4750;432;0.0485;0.0113;0.00176;1.22;350
4752;432;0.0485;0.0113;0.00176;1.22;350
4754;432;0.0485;0.0114;0.00174;1.22;350
4756;432;0.0485;0.0113;0.00176;1.22;350
4758;432;0.0485;0.0113;0.00175;1.22;350
4760;432;0.0485;0.0113;0.00176;1.22;350
4762;432;0.0485;0.0113;0.00176;1.22;350
4764;432;0.0485;0.0113;0.00176;1.22;350
4766;432;0.0485;0.0113;0.00177;1.22;350
4768;432;0.0485;0.0113;0.00175;1.22;350
4770;432;0.0485;0.0113;0.00178;1.22;350
4772;432;0.0485;0.0113;0.00179;1.22;350
4774;432;0.0485;0.0113;0.00177;1.22;350
4776;432;0.0485;0.0113;0.00178;1.22;350
4778;432;0.0485;0.0113;0.00178;1.22;350
4780;432;0.0485;0.0113;0.00179;1.22;350
4782;432;0.0485;0.0113;0.0018;1.22;350
4784;432;0.0485;0.0113;0.00179;1.22;350
4786;432;0.0485;0.0113;0.00177;1.21;350
4788;432;0.0485;0.0113;0.00178;1.22;350
4790;432;0.0485;0.0113;0.00177;1.22;350
4792;432;0.0485;0.0113;0.00179;1.22;350
4794;432;0.0485;0.0113;0.00179;1.22;350
4796;432;0.0485;0.0113;0.00178;1.22;350
4798;432;0.0485;0.0113;0.00178;1.22;350
4800;432;0.0485;0.0113;0.00179;1.22;350
4802;432;0.0485;0.0113;0.00177;1.21;350
4804;432;0.0485;0.0113;0.0018;1.22;350
4806;432;0.0485;0.0113;0.0018;1.22;350
4808;432;0.0485;0.0113;0.00178;1.22;350
4810;432;0.0485;0.0113;0.00179;1.22;350
4812;432;0.0485;0.0113;0.00178;1.21;350
4814;432;0.0485;0.0113;0.00178;1.22;350
4816;433;0.0485;0.0113;0.00178;1.21;350
4818;432;0.0485;0.0113;0.00179;1.21;350
4820;433;0.0485;0.0113;0.00179;1.22;350
4822;432;0.0485;0.0113;0.00178;1.21;350
4824;433;0.0485;0.0113;0.00176;1.22;350
4826;433;0.0485;0.0113;0.00178;1.22;350
4828;432;0.0485;0.0113;0.00178;1.22;350
4830;433;0.0485;0.0113;0.00178;1.22;350
4832;432;0.0485;0.0113;0.00179;1.22;350
4834;432;0.0485;0.0113;0.00178;1.22;350
4836;433;0.0485;0.0113;0.00177;1.21;350
4838;433;0.0485;0.0113;0.00179;1.22;350
4840;433;0.0485;0.0113;0.00178;1.22;350
4842;433;0.0485;0.0113;0.00177;1.22;350
4844;432;0.0485;0.0113;0.00178;1.22;350
4846;433;0.0485;0.0113;0.00177;1.22;350
4848;433;0.0485;0.0113;0.00178;1.22;350
4850;433;0.0485;0.0113;0.00178;1.22;350
4852;433;0.0485;0.0113;0.00178;1.22;350
4854;433;0.0485;0.0113;0.00177;1.22;350
4856;433;0.0485;0.0113;0.00178;1.22;350
4858;433;0.0485;0.0113;0.00177;1.22;350
4860;433;0.0485;0.0113;0.00179;1.22;350
4862;433;0.0485;0.0113;0.00176;1.22;350
4864;433;0.0485;0.0113;0.00177;1.22;350
4866;433;0.0485;0.0113;0.00177;1.22;350
4868;433;0.0485;0.0113;0.00178;1.22;350
4870;433;0.0485;0.0113;0.00178;1.22;350
4872;434;0.0485;0.0113;0.00176;1.22;350
4874;434;0.0485;0.0113;0.00179;1.22;350
4876;434;0.0485;0.0113;0.00176;1.22;350
4878;434;0.0485;0.0113;0.00177;1.22;350
4880;434;0.0485;0.0113;0.00178;1.22;350
4882;434;0.0485;0.0113;0.00175;1.22;350
4884;434;0.0485;0.0113;0.00178;1.22;350
4886;434;0.0485;0.0113;0.00177;1.22;350
4888;434;0.0485;0.0113;0.00176;1.22;350
4890;434;0.0485;0.0113;0.00179;1.22;350
4892;434;0.0485;0.0113;0.00178;1.22;350
4894;434;0.0485;0.0113;0.00177;1.22;350
4896;434;0.0485;0.0113;0.00176;1.22;350
4898;434;0.0485;0.0113;0.00178;1.22;350
4900;434;0.0485;0.0113;0.00178;1.22;350
4902;434;0.0485;0.0113;0.00176;1.22;350
4904;434;0.0485;0.0113;0.00177;1.22;350
4906;434;0.0485;0.0113;0.00177;1.22;350
4908;434;0.0485;0.0113;0.00177;1.22;350
4910;434;0.0485;0.0113;0.00176;1.22;350
4912;434;0.0485;0.0113;0.00176;1.22;350
4914;434;0.0485;0.0113;0.00175;1.22;350
4916;434;0.0485;0.0113;0.00177;1.22;350
4918;434;0.0485;0.0113;0.00176;1.22;350
4920;434;0.0485;0.0114;0.00174;1.22;350
4922;434;0.0485;0.0113;0.00177;1.22;350
4924;435;0.0485;0.0113;0.00176;1.22;350
4926;434;0.0485;0.0113;0.00177;1.22;350
4928;434;0.0485;0.0113;0.00178;1.22;350
4930;435;0.0485;0.0113;0.00177;1.22;350
4932;435;0.0485;0.0113;0.00178;1.22;350
4934;435;0.0485;0.0113;0.00178;1.22;350
4936;435;0.0485;0.0113;0.00176;1.22;350
4938;435;0.0485;0.0113;0.00179;1.22;350
4940;435;0.0485;0.0113;0.00179;1.22;350
4942;435;0.0485;0.0113;0.00178;1.22;350
4944;435;0.0485;0.0113;0.00179;1.22;350
4946;435;0.0485;0.0113;0.00179;1.22;350
4948;435;0.0485;0.0113;0.00178;1.22;350
4950;435;0.0485;0.0113;0.00178;1.22;350
4952;435;0.0485;0.0113;0.00177;1.22;350
4954;435;0.0485;0.0113;0.00178;1.22;350
4956;435;0.0485;0.0113;0.00178;1.22;350
4958;435;0.0485;0.0113;0.00178;1.22;350
4960;435;0.0485;0.0113;0.00179;1.22;350
4962;435;0.0485;0.0113;0.00179;1.22;350
4964;435;0.0485;0.0113;0.00178;1.22;350
4966;435;0.0485;0.0113;0.00177;1.22;350
4968;435;0.0485;0.0113;0.00177;1.22;350
4970;435;0.0485;0.0113;0.00178;1.22;350
4972;435;0.0485;0.0113;0.00179;1.22;350
4974;435;0.0485;0.0113;0.00179;1.22;350
4976;435;0.0485;0.0113;0.00179;1.22;350
4978;435;0.0485;0.0113;0.00176;1.22;350
4980;435;0.0485;0.0113;0.00177;1.22;350
4982;435;0.0485;0.0113;0.00177;1.22;350
4984;435;0.0485;0.0113;0.00176;1.22;350
4986;435;0.0485;0.0113;0.00177;1.22;350
4988;435;0.0485;0.0113;0.00177;1.22;350
4990;435;0.0485;0.0113;0.00177;1.22;350
4992;435;0.0485;0.0113;0.00177;1.22;350
4994;435;0.0485;0.0113;0.00177;1.22;350
4996;435;0.0485;0.0113;0.00176;1.22;350
4998;435;0.0485;0.0113;0.00177;1.22;350
5000;435;0.0485;0.0113;0.00175;1.22;350
5002;435;0.0485;0.0114;0.00174;1.22;350
5004;435;0.0485;0.0113;0.00175;1.22;350
5006;435;0.0485;0.0113;0.00176;1.22;350
5008;435;0.0485;0.0113;0.00176;1.22;350
5010;436;0.0485;0.0113;0.00177;1.22;350
5012;436;0.0485;0.0113;0.00176;1.22;350
5014;437;0.0485;0.0113;0.00174;1.22;350
5016;437;0.0485;0.0113;0.00175;1.22;350
5018;437;0.0485;0.0113;0.00176;1.22;350
5020;437;0.0485;0.0113;0.00178;1.22;350
5022;436;0.0485;0.0113;0.00178;1.22;350
5024;437;0.0485;0.0113;0.00177;1.22;350
5026;436;0.0485;0.0113;0.00178;1.22;350
5028;436;0.0485;0.0113;0.00178;1.22;350
5030;436;0.0485;0.0113;0.00178;1.22;350
5032;436;0.0485;0.0113;0.00179;1.22;350
5034;436;0.0485;0.0113;0.00176;1.22;350
5036;436;0.0485;0.0113;0.00178;1.22;350
5038;436;0.0485;0.0113;0.00177;1.22;350
5040;436;0.0485;0.0113;0.00178;1.22;350
5042;436;0.0485;0.0113;0.00178;1.22;350
5044;436;0.0485;0.0113;0.00177;1.22;350
5046;436;0.0485;0.0113;0.00177;1.22;350
5048;437;0.0485;0.0113;0.00177;1.22;350
5050;436;0.0485;0.0113;0.00176;1.22;350
5052;436;0.0485;0.0113;0.00176;1.22;350
5054;436;0.0485;0.0113;0.00177;1.22;350
5056;437;0.0485;0.0113;0.00177;1.22;350
5058;436;0.0485;0.0113;0.00176;1.22;350
5060;436;0.0485;0.0113;0.00175;1.22;350
5062;436;0.0485;0.0113;0.00176;1.22;350
5064;436;0.0485;0.0113;0.00178;1.22;350
5066;436;0.0485;0.0113;0.00176;1.22;350
5068;436;0.0485;0.0113;0.00176;1.22;350
5070;436;0.0485;0.0113;0.00177;1.22;350
5072;436;0.0485;0.0113;0.00175;1.22;350
5074;436;0.0485;0.0114;0.00174;1.22;350
5076;436;0.0485;0.0113;0.00176;1.22;350
5078;436;0.0485;0.0113;0.00177;1.22;350
5080;436;0.0485;0.0113;0.00178;1.22;350
5082;436;0.0485;0.0113;0.00177;1.22;350
5084;436;0.0485;0.0113;0.00177;1.22;350
5086;436;0.0485;0.0113;0.00177;1.22;350
5088;436;0.0485;0.0113;0.00175;1.22;350
5090;436;0.0485;0.0113;0.00175;1.22;350
5092;436;0.0485;0.0113;0.00177;1.22;350
5094;436;0.0485;0.0113;0.00177;1.22;350
5096;436;0.0485;0.0113;0.00176;1.22;350
5098;436;0.0485;0.0113;0.00177;1.22;350
5100;436;0.0485;0.0113;0.00177;1.22;350
5102;436;0.0485;0.0113;0.00177;1.22;350
5104;436;0.0485;0.0113;0.00177;1.22;350
5106;436;0.0485;0.0113;0.00176;1.22;350
5108;436;0.0485;0.0113;0.00177;1.22;350
5110;436;0.0485;0.0113;0.00176;1.22;350
5112;436;0.0485;0.0114;0.00174;1.22;350
5114;436;0.0485;0.0113;0.00178;1.22;350
5116;436;0.0485;0.0113;0.00177;1.22;350
5118;436;0.0485;0.0113;0.00176;1.22;350
5120;436;0.0485;0.0113;0.00175;1.22;350
5122;436;0.0485;0.0113;0.00175;1.22;350
5124;436;0.0485;0.0113;0.00175;1.22;350
5126;436;0.0485;0.0113;0.00176;1.22;350
5128;436;0.0485;0.0113;0.00175;1.22;350
5130;436;0.0485;0.0114;0.00174;1.22;350
5132;436;0.0485;0.0113;0.00175;1.22;350
5134;436;0.0485;0.0113;0.00175;1.22;350
5136;436;0.0485;0.0113;0.00175;1.22;350
5138;436;0.0485;0.0114;0.00173;1.22;350
5140;436;0.0485;0.0113;0.00175;1.22;350
5142;436;0.0485;0.0113;0.00176;1.22;350
5144;436;0.0485;0.0114;0.00174;1.22;350
5146;437;0.0485;0.0113;0.00176;1.22;350
5148;437;0.0485;0.0114;0.00173;1.22;350
5150;437;0.0485;0.0114;0.00173;1.22;350
5152;437;0.0485;0.0113;0.00177;1.22;350
5154;437;0.0485;0.0113;0.00177;1.22;350
5156;437;0.0485;0.0113;0.00177;1.22;350
5158;437;0.0485;0.0113;0.00177;1.22;350
5160;437;0.0485;0.0113;0.00177;1.22;350
5162;437;0.0485;0.0113;0.00177;1.22;350
5164;437;0.0485;0.0113;0.00176;1.22;350
5166;437;0.0485;0.0113;0.00177;1.22;350
5168;437;0.0485;0.0113;0.00176;1.22;350
5170;437;0.0485;0.0113;0.00176;1.22;350
5172;437;0.0485;0.0113;0.00176;1.22;350
5174;437;0.0485;0.0113;0.00177;1.22;350
5176;437;0.0485;0.0113;0.00178;1.22;350
5178;438;0.0485;0.0113;0.00176;1.22;350
5180;437;0.0485;0.0113;0.00175;1.22;350
5182;437;0.0485;0.0113;0.00175;1.22;350
5184;437;0.0485;0.0113;0.00175;1.22;350
5186;438;0.0485;0.0113;0.00176;1.22;350
5188;438;0.0485;0.0113;0.00177;1.22;350
5190;438;0.0485;0.0113;0.00176;1.22;350
5192;437;0.0485;0.0113;0.00175;1.22;350
5194;438;0.0485;0.0113;0.00176;1.22;350
5196;438;0.0485;0.0113;0.00177;1.22;350
5198;438;0.0485;0.0113;0.00176;1.22;350
5200;438;0.0485;0.0113;0.00176;1.22;350
5202;438;0.0485;0.0113;0.00177;1.22;350
5204;438;0.0485;0.0113;0.00176;1.22;350
5206;438;0.0485;0.0114;0.00174;1.22;350
5208;438;0.0485;0.0113;0.00175;1.22;350
5210;438;0.0485;0.0113;0.00175;1.22;350
5212;438;0.0485;0.0113;0.00175;1.22;350
5214;438;0.0485;0.0114;0.00174;1.23;350
5216;437;0.0485;0.0114;0.00174;1.22;350
5218;438;0.0485;0.0114;0.00172;1.22;350
5220;438;0.0485;0.0114;0.00173;1.22;350
5222;438;0.0485;0.0114;0.00172;1.22;350
5224;438;0.0485;0.0114;0.00171;1.22;350
5226;438;0.0485;0.0114;0.00171;1.22;350
5228;438;0.0485;0.0114;0.00171;1.22;350
5230;438;0.0485;0.0114;0.00172;1.22;350
5232;438;0.0485;0.0114;0.00172;1.22;350
5234;438;0.0485;0.0114;0.00171;1.22;350
5236;438;0.0485;0.0114;0.00171;1.22;350
5238;438;0.0485;0.0114;0.00171;1.22;350
5240;438;0.0485;0.0114;0.00172;1.22;350
5242;438;0.0485;0.0114;0.00172;1.22;350
5244;438;0.0485;0.0114;0.00173;1.22;350
5246;438;0.0485;0.0114;0.00174;1.22;350
5248;438;0.0485;0.0114;0.00174;1.22;350
5250;438;0.0485;0.0114;0.00174;1.22;350
5252;438;0.0485;0.0114;0.00172;1.22;350
5254;438;0.0485;0.0114;0.00173;1.22;350
5256;438;0.0485;0.0114;0.00173;1.22;350
5258;438;0.0485;0.0114;0.00172;1.22;350
5260;438;0.0485;0.0114;0.00172;1.22;350
5262;438;0.0485;0.0114;0.00174;1.22;350
5264;438;0.0485;0.0114;0.00173;1.22;350
5266;438;0.0485;0.0114;0.00173;1.22;350
5268;438;0.0485;0.0114;0.00171;1.22;350
5270;438;0.0485;0.0114;0.0017;1.22;350
5272;438;0.0485;0.0114;0.00173;1.22;350
5274;438;0.0485;0.0114;0.00174;1.22;350
5276;438;0.0485;0.0114;0.00173;1.22;350
5278;438;0.0485;0.0114;0.00173;1.22;350
5280;438;0.0485;0.0114;0.00173;1.22;350
5282;438;0.0485;0.0114;0.00174;1.22;350
5284;439;0.0485;0.0114;0.00174;1.22;350
5286;439;0.0485;0.0114;0.00172;1.22;350
5288;439;0.0485;0.0114;0.00173;1.22;350
5290;439;0.0485;0.0114;0.00172;1.22;350
5292;439;0.0485;0.0114;0.00172;1.22;350
5294;439;0.0485;0.0114;0.00172;1.22;350
5296;439;0.0485;0.0114;0.00171;1.22;350
5298;439;0.0485;0.0114;0.00171;1.22;350
5300;439;0.0485;0.0114;0.00171;1.22;350
5302;439;0.0485;0.0114;0.00172;1.22;350
5304;439;0.0485;0.0114;0.00173;1.22;350
5306;439;0.0485;0.0114;0.0017;1.22;350
5308;439;0.0485;0.0114;0.0017;1.22;350
5310;439;0.0485;0.0114;0.00171;1.22;350
5312;439;0.0485;0.0114;0.00173;1.22;350
5314;439;0.0485;0.0114;0.00173;1.22;350
5316;439;0.0485;0.0114;0.00173;1.22;350
5318;439;0.0485;0.0114;0.00173;1.22;350
5320;439;0.0485;0.0114;0.00173;1.22;350
5322;439;0.0485;0.0114;0.00174;1.22;350
5324;439;0.0485;0.0114;0.00173;1.22;350
5326;439;0.0485;0.0114;0.00173;1.22;350
5328;439;0.0485;0.0114;0.00173;1.22;350
5330;439;0.0485;0.0114;0.00173;1.22;350
5332;439;0.0485;0.0114;0.00173;1.22;350
5334;439;0.0485;0.0114;0.00172;1.22;350
5336;439;0.0485;0.0114;0.00172;1.22;350
5338;439;0.0485;0.0114;0.00173;1.22;350
5340;439;0.0485;0.0114;0.00173;1.22;350
5342;439;0.0485;0.0114;0.00173;1.22;350
5344;439;0.0485;0.0114;0.00171;1.22;350
5346;439;0.0485;0.0114;0.00171;1.22;350
5348;439;0.0485;0.0114;0.00171;1.22;350
5350;439;0.0485;0.0114;0.00171;1.22;350
5352;439;0.0485;0.0114;0.00173;1.22;350
5354;439;0.0485;0.0114;0.00173;1.22;350
5356;439;0.0485;0.0114;0.00172;1.22;350
5358;439;0.0485;0.0114;0.00171;1.22;350
5360;439;0.0485;0.0114;0.00172;1.22;350
5362;439;0.0485;0.0114;0.00172;1.22;350
5364;439;0.0485;0.0114;0.00171;1.22;350
5366;439;0.0485;0.0114;0.00171;1.22;350
5368;439;0.0485;0.0114;0.00171;1.22;350
5370;439;0.0485;0.0114;0.00171;1.22;350
5372;439;0.0485;0.0114;0.00171;1.22;350
5374;439;0.0485;0.0114;0.0017;1.22;350
5376;439;0.0485;0.0114;0.0017;1.22;350
5378;439;0.0485;0.0114;0.00168;1.22;350
5380;439;0.0485;0.0114;0.00168;1.22;350
5382;439;0.0485;0.0114;0.00168;1.22;350
5384;439;0.0485;0.0114;0.00168;1.22;350
5386;439;0.0485;0.0114;0.00169;1.22;350
5388;439;0.0485;0.0114;0.00171;1.22;350
5390;439;0.0485;0.0114;0.00171;1.22;350
5392;439;0.0485;0.0114;0.00169;1.22;350
5394;439;0.0485;0.0114;0.0017;1.22;350
5396;439;0.0485;0.0114;0.00169;1.22;350
5398;439;0.0485;0.0114;0.0017;1.22;350
5400;439;0.0485;0.0114;0.00173;1.22;350
5402;439;0.0485;0.0114;0.00171;1.22;350
5404;439;0.0485;0.0114;0.0017;1.22;350
5406;439;0.0485;0.0114;0.00172;1.22;350
5408;439;0.0485;0.0114;0.00172;1.22;350
5410;439;0.0485;0.0114;0.0017;1.22;350
5412;439;0.0485;0.0114;0.00169;1.22;350
5414;439;0.0485;0.0114;0.0017;1.22;350
5416;439;0.0485;0.0114;0.0017;1.22;350
5418;439;0.0485;0.0114;0.0017;1.22;350
5420;439;0.0485;0.0114;0.00167;1.22;350
5422;440;0.0485;0.0114;0.00169;1.22;350
5424;440;0.0485;0.0114;0.00168;1.22;350
5426;440;0.0485;0.0114;0.00168;1.22;350
5428;440;0.0485;0.0114;0.00167;1.22;350
5430;440;0.0485;0.0114;0.00167;1.22;350
5432;440;0.0485;0.0114;0.00169;1.22;350
5434;440;0.0485;0.0114;0.00169;1.22;350
5436;440;0.0485;0.0114;0.00168;1.22;350
5438;440;0.0485;0.0114;0.00168;1.22;350
5440;440;0.0485;0.0114;0.0017;1.22;350
5442;440;0.0485;0.0114;0.0017;1.22;350
5444;440;0.0485;0.0114;0.0017;1.22;350
5446;440;0.0485;0.0114;0.00169;1.22;350
5448;440;0.0485;0.0114;0.00171;1.22;350
5450;440;0.0485;0.0114;0.00169;1.22;350
5452;440;0.0485;0.0114;0.0017;1.22;350
5454;440;0.0485;0.0114;0.0017;1.22;350
5456;440;0.0485;0.0114;0.00172;1.22;350
5458;440;0.0485;0.0114;0.00172;1.22;350
5460;440;0.0485;0.0114;0.00172;1.22;350
5462;440;0.0485;0.0114;0.0017;1.22;350
5464;440;0.0485;0.0114;0.0017;1.22;350
5466;440;0.0485;0.0114;0.0017;1.22;350
5468;440;0.0485;0.0114;0.00171;1.22;350
5470;440;0.0485;0.0114;0.0017;1.22;350
5472;440;0.0485;0.0114;0.00171;1.22;350
5474;440;0.0485;0.0114;0.00169;1.22;350
5476;440;0.0485;0.0114;0.00171;1.22;350
5478;440;0.0485;0.0114;0.00169;1.22;350
5480;440;0.0485;0.0114;0.00169;1.22;350
5482;440;0.0485;0.0114;0.00169;1.22;350
5484;440;0.0485;0.0114;0.00168;1.22;350
5486;440;0.0485;0.0114;0.00167;1.22;350
5488;440;0.0485;0.0114;0.00169;1.22;350
5490;440;0.0485;0.0114;0.00169;1.22;350
5492;440;0.0485;0.0114;0.00169;1.22;350
5494;440;0.0485;0.0114;0.00167;1.22;350
5496;440;0.0485;0.0114;0.00166;1.22;350
5498;440;0.0485;0.0114;0.00168;1.22;350
5500;440;0.0485;0.0114;0.00169;1.22;350
5502;440;0.0485;0.0114;0.00169;1.22;350
5504;440;0.0485;0.0114;0.00168;1.22;350
5506;440;0.0485;0.0114;0.00169;1.22;350
5508;440;0.0485;0.0114;0.00169;1.22;350
5510;440;0.0485;0.0114;0.00166;1.22;350
5512;440;0.0485;0.0114;0.00169;1.22;350
5514;440;0.0485;0.0114;0.00169;1.22;350
5516;440;0.0485;0.0114;0.00169;1.22;350
5518;440;0.0485;0.0114;0.00167;1.22;350
5520;440;0.0485;0.0114;0.00167;1.22;350
5522;440;0.0485;0.0114;0.00168;1.22;350
5524;440;0.0485;0.0114;0.00168;1.22;350
5526;440;0.0485;0.0114;0.00167;1.22;350
5528;440;0.0485;0.0114;0.00166;1.22;350
5530;440;0.0485;0.0114;0.00168;1.22;350
5532;440;0.0485;0.0114;0.00169;1.22;350
5534;440;0.0485;0.0114;0.00168;1.22;350
5536;440;0.0485;0.0114;0.00168;1.22;350
5538;440;0.0485;0.0114;0.00168;1.22;350
5540;440;0.0485;0.0114;0.0017;1.22;350
5542;440;0.0485;0.0114;0.0017;1.22;350
5544;440;0.0485;0.0114;0.0017;1.22;350
5546;440;0.0485;0.0114;0.0017;1.22;350
5548;440;0.0485;0.0114;0.0017;1.22;350
5550;440;0.0485;0.0114;0.0017;1.22;350
5552;440;0.0485;0.0114;0.0017;1.22;350
5554;440;0.0485;0.0114;0.0017;1.22;350
5556;440;0.0485;0.0114;0.0017;1.22;350
5558;440;0.0485;0.0114;0.0017;1.22;350
5560;441;0.0485;0.0114;0.0017;1.21;350
5562;441;0.0485;0.0114;0.0017;1.22;350
5564;441;0.0485;0.0114;0.0017;1.22;350
5566;441;0.0485;0.0114;0.0017;1.22;350
5568;441;0.0485;0.0114;0.0017;1.22;350
5570;441;0.0485;0.0114;0.0017;1.22;350
5572;441;0.0485;0.0114;0.0017;1.22;350
5574;441;0.0485;0.0114;0.0017;1.22;350
5576;441;0.0485;0.0114;0.0017;1.22;350
5578;441;0.0485;0.0114;0.0017;1.22;350
5580;441;0.0485;0.0114;0.0017;1.22;350
5582;441;0.0485;0.0114;0.0017;1.22;350
5584;441;0.0485;0.0114;0.0017;1.22;350
5586;441;0.0485;0.0114;0.0017;1.22;350
5588;441;0.0485;0.0114;0.0017;1.22;350
5590;441;0.0485;0.0114;0.0017;1.22;350
5592;441;0.0485;0.0114;0.0017;1.22;350
5594;441;0.0485;0.0114;0.0017;1.22;350
5596;441;0.0485;0.0114;0.0017;1.22;350
5598;441;0.0485;0.0114;0.0017;1.22;350
5600;441;0.0485;0.0114;0.0017;1.22;350
5602;441;0.0485;0.0114;0.0017;1.22;350
5604;441;0.0485;0.0114;0.0017;1.22;350
5606;441;0.0485;0.0114;0.0017;1.22;350
5608;441;0.0485;0.0114;0.0017;1.22;350
5610;441;0.0485;0.0114;0.0017;1.22;350
5612;441;0.0485;0.0114;0.0017;1.22;350
5614;441;0.0485;0.0114;0.0017;1.22;350
5616;441;0.0485;0.0114;0.0017;1.22;350
5618;441;0.0485;0.0114;0.0017;1.22;350
5620;441;0.0485;0.0114;0.0017;1.22;350
5622;441;0.0485;0.0114;0.0017;1.22;350
5624;441;0.0485;0.0114;0.0017;1.22;350
5626;440;0.0485;0.0114;0.0017;1.22;350
5628;441;0.0485;0.0114;0.0017;1.21;350
5630;441;0.0485;0.0114;0.0017;1.22;350
5632;441;0.0485;0.0114;0.0017;1.22;350
5634;441;0.0485;0.0114;0.0017;1.22;350
5636;441;0.0485;0.0114;0.0017;1.22;350
5638;441;0.0485;0.0114;0.0017;1.22;350
5640;441;0.0485;0.0114;0.0017;1.22;350
5642;441;0.0485;0.0114;0.0017;1.22;350
5644;441;0.0485;0.0114;0.0017;1.22;350
5646;441;0.0485;0.0114;0.0017;1.22;350
5648;441;0.0485;0.0114;0.0017;1.21;350
5650;441;0.0485;0.0114;0.0017;1.22;350
5652;441;0.0485;0.0114;0.0017;1.22;350
5654;441;0.0485;0.0114;0.0017;1.22;350
5656;441;0.0485;0.0114;0.0017;1.22;350
5658;441;0.0485;0.0114;0.0017;1.22;350
5660;441;0.0485;0.0114;0.0017;1.22;350
5662;441;0.0485;0.0114;0.0017;1.22;350
5664;441;0.0485;0.0114;0.0017;1.22;350
5666;441;0.0485;0.0114;0.0017;1.22;350
5668;441;0.0485;0.0114;0.0017;1.21;350
5670;441;0.0485;0.0114;0.0017;1.22;350
5672;441;0.0485;0.0114;0.0017;1.21;350
5674;441;0.0485;0.0114;0.0017;1.22;350
5676;441;0.0485;0.0114;0.0017;1.22;350
5678;441;0.0485;0.0114;0.0017;1.22;350
5680;441;0.0485;0.0114;0.0017;1.22;350
5682;441;0.0485;0.0114;0.0017;1.22;350
5684;441;0.0485;0.0114;0.0017;1.22;350
5686;441;0.0485;0.0114;0.0017;1.22;350
5688;441;0.0485;0.0114;0.0017;1.22;350
5690;441;0.0485;0.0114;0.0017;1.21;350
5692;441;0.0485;0.0114;0.0017;1.21;350
5694;441;0.0485;0.0114;0.0017;1.21;350
5696;441;0.0485;0.0114;0.0017;1.21;350
5698;442;0.0485;0.0114;0.0017;1.21;350
5700;442;0.0485;0.0114;0.0017;1.21;350
5702;442;0.0485;0.0114;0.0017;1.22;350
5704;442;0.0485;0.0114;0.0017;1.22;350
5706;442;0.0485;0.0114;0.0017;1.22;350
5708;442;0.0485;0.0114;0.0017;1.22;350
5710;442;0.0485;0.0114;0.0017;1.21;350
5712;442;0.0485;0.0114;0.0017;1.21;350
5714;442;0.0485;0.0114;0.0017;1.21;350
5716;442;0.0485;0.0114;0.0017;1.21;350
5718;442;0.0485;0.0114;0.0017;1.22;350
5720;442;0.0485;0.0114;0.0017;1.21;350
5722;442;0.0485;0.0114;0.0017;1.22;350
5724;442;0.0485;0.0114;0.0017;1.22;350
5726;442;0.0485;0.0114;0.0017;1.22;350
5728;442;0.0485;0.0114;0.0017;1.22;350
5730;442;0.0485;0.0114;0.0017;1.21;350
5732;442;0.0485;0.0114;0.0017;1.22;350
5734;442;0.0485;0.0114;0.0017;1.22;350
5736;442;0.0485;0.0114;0.0017;1.22;350
5738;442;0.0485;0.0114;0.0017;1.22;350
5740;441;0.0485;0.0114;0.0017;1.21;350
5742;442;0.0485;0.0114;0.0017;1.22;350
5744;442;0.0485;0.0114;0.0017;1.22;350
5746;442;0.0485;0.0114;0.0017;1.22;350
5748;442;0.0485;0.0114;0.0017;1.22;350
5750;442;0.0485;0.0114;0.0017;1.22;350
5752;442;0.0485;0.0114;0.0017;1.22;350
5754;442;0.0485;0.0114;0.0017;1.22;350
5756;442;0.0485;0.0114;0.0017;1.22;350
5758;442;0.0485;0.0114;0.0017;1.22;350
5760;442;0.0485;0.0114;0.0017;1.21;350
5762;441;0.0485;0.0114;0.0017;1.22;350
5764;441;0.0485;0.0114;0.0017;1.21;350
5766;441;0.0485;0.0114;0.0017;1.21;350
5768;442;0.0485;0.0114;0.0017;1.21;350
5770;442;0.0485;0.0114;0.0017;1.21;350
5772;442;0.0485;0.0114;0.0017;1.22;350
5774;442;0.0485;0.0114;0.0017;1.21;350
5776;442;0.0485;0.0114;0.0017;1.22;350
5778;442;0.0485;0.0114;0.0017;1.22;350
5780;442;0.0485;0.0114;0.0017;1.22;350
5782;442;0.0485;0.0114;0.0017;1.22;350
5784;441;0.0485;0.0114;0.0017;1.22;350
5786;442;0.0485;0.0114;0.0017;1.22;350
5788;442;0.0485;0.0114;0.0017;1.22;350
5790;442;0.0485;0.0114;0.0017;1.22;350
5792;442;0.0485;0.0114;0.0017;1.21;350
5794;442;0.0485;0.0114;0.0017;1.21;350
5796;442;0.0485;0.0114;0.0017;1.22;350
5798;442;0.0485;0.0114;0.0017;1.22;350
5800;442;0.0485;0.0114;0.0017;1.22;350
5802;442;0.0485;0.0114;0.0017;1.22;350
5804;442;0.0485;0.0114;0.0017;1.22;350
5806;442;0.0485;0.0114;0.0017;1.22;350
5808;442;0.0485;0.0114;0.0017;1.22;350
5810;442;0.0485;0.0114;0.0017;1.22;350
5812;442;0.0485;0.0114;0.0017;1.22;350
5814;442;0.0485;0.0114;0.0017;1.21;350
5816;441;0.0485;0.0114;0.0017;1.21;350
5818;442;0.0485;0.0114;0.0017;1.21;350
5820;442;0.0485;0.0114;0.0017;1.22;350
5822;442;0.0485;0.0114;0.0017;1.21;350
5824;442;0.0485;0.0114;0.0017;1.21;350
5826;442;0.0485;0.0114;0.0017;1.22;350
5828;442;0.0485;0.0114;0.0017;1.22;350
5830;442;0.0485;0.0114;0.0017;1.22;350
5832;442;0.0485;0.0114;0.0017;1.22;350
5834;442;0.0485;0.0114;0.0017;1.22;350
5836;443;0.0485;0.0114;0.0017;1.22;350
5838;443;0.0485;0.0114;0.0017;1.22;350
5840;443;0.0485;0.0114;0.0017;1.22;350
5842;443;0.0485;0.0114;0.0017;1.21;350
5844;443;0.0485;0.0114;0.0017;1.22;350
5846;443;0.0485;0.0114;0.0017;1.21;350
5848;443;0.0485;0.0114;0.0017;1.22;350
5850;443;0.0485;0.0114;0.0017;1.22;350
5852;443;0.0485;0.0114;0.0017;1.22;350
5854;443;0.0485;0.0114;0.0017;1.22;350
5856;443;0.0485;0.0114;0.0017;1.21;350
5858;443;0.0485;0.0114;0.0017;1.21;350
5860;443;0.0485;0.0114;0.0017;1.21;350
5862;443;0.0485;0.0114;0.0017;1.21;350
5864;443;0.0485;0.0114;0.0017;1.22;350
5866;443;0.0485;0.0114;0.0017;1.22;350
5868;443;0.0485;0.0114;0.0017;1.22;350
5870;443;0.0485;0.0114;0.0017;1.22;350
5872;443;0.0485;0.0114;0.0017;1.21;350
5874;443;0.0485;0.0114;0.0017;1.22;350
5876;443;0.0485;0.0114;0.0017;1.21;350
5878;443;0.0485;0.0114;0.0017;1.22;350
5880;443;0.0485;0.0114;0.0017;1.21;350
5882;443;0.0485;0.0114;0.0017;1.22;350
5884;443;0.0485;0.0114;0.0017;1.21;350
5886;443;0.0485;0.0114;0.0017;1.22;350
5888;443;0.0485;0.0114;0.0017;1.22;350
5890;443;0.0485;0.0114;0.0017;1.21;350
5892;443;0.0485;0.0114;0.0017;1.22;350
5894;443;0.0485;0.0114;0.0017;1.22;350
5896;443;0.0485;0.0114;0.0017;1.22;350
5898;443;0.0485;0.0114;0.0017;1.21;350
5900;443;0.0485;0.0114;0.0017;1.21;350
5902;443;0.0485;0.0114;0.0017;1.21;350
5904;443;0.0485;0.0114;0.0017;1.21;350
5906;443;0.0485;0.0114;0.0017;1.21;350
5908;443;0.0485;0.0114;0.0017;1.21;350
5910;443;0.0485;0.0114;0.0017;1.21;350
5912;443;0.0485;0.0114;0.0017;1.21;350
5914;443;0.0485;0.0114;0.0017;1.22;350
5916;443;0.0485;0.0114;0.0017;1.22;350
5918;443;0.0485;0.0114;0.0017;1.21;350
5920;443;0.0485;0.0114;0.0017;1.21;350
5922;443;0.0485;0.0114;0.0017;1.21;350
5924;443;0.0485;0.0114;0.0017;1.21;350
5926;443;0.0485;0.0114;0.0017;1.21;350
5928;443;0.0485;0.0114;0.0017;1.21;350
5930;443;0.0485;0.0114;0.0017;1.21;350
5932;443;0.0485;0.0114;0.0017;1.21;350
5934;443;0.0485;0.0114;0.0017;1.21;350
5936;443;0.0485;0.0114;0.0017;1.22;350
5938;443;0.0485;0.0114;0.0017;1.21;350
5940;443;0.0485;0.0114;0.0017;1.21;350
5942;443;0.0485;0.0114;0.0017;1.22;350
5944;443;0.0485;0.0114;0.0017;1.21;350
5946;443;0.0485;0.0114;0.0017;1.22;350
5948;443;0.0485;0.0114;0.0017;1.22;350
5950;443;0.0485;0.0114;0.0017;1.22;350
5952;443;0.0485;0.0114;0.0017;1.22;350
5954;443;0.0485;0.0114;0.0017;1.22;350
5956;443;0.0485;0.0114;0.0017;1.22;350
5958;443;0.0485;0.0114;0.0017;1.22;350
5960;443;0.0485;0.0114;0.0017;1.22;350
5962;443;0.0485;0.0114;0.0017;1.21;350
5964;443;0.0485;0.0114;0.0017;1.21;350
5966;443;0.0485;0.0114;0.0017;1.22;350
5968;443;0.0485;0.0114;0.0017;1.21;350
5970;443;0.0485;0.0114;0.0017;1.22;350
5972;443;0.0485;0.0114;0.0017;1.21;350
5974;444;0.0485;0.0114;0.0017;1.22;350
5976;444;0.0485;0.0114;0.0017;1.22;350
5978;444;0.0485;0.0114;0.0017;1.22;350
5980;444;0.0485;0.0114;0.0017;1.22;350
5982;444;0.0485;0.0114;0.0017;1.21;350
5984;444;0.0485;0.0114;0.0017;1.22;350
5986;444;0.0485;0.0114;0.0017;1.21;350
5988;444;0.0485;0.0114;0.0017;1.22;350
5990;444;0.0485;0.0114;0.0017;1.21;350
5992;444;0.0485;0.0114;0.0017;1.21;350
5994;444;0.0485;0.0114;0.0017;1.22;350
5996;444;0.0485;0.0114;0.0017;1.22;350
5998;444;0.0485;0.0114;0.0017;1.21;350
6000;444;0.0485;0.0114;0.0017;1.22;350
6002;444;0.0485;0.0114;0.0017;1.21;350
6004;444;0.0485;0.0114;0.0017;1.22;350
6006;444;0.0485;0.0114;0.0017;1.21;350
6008;444;0.0485;0.0114;0.0017;1.22;350
6010;444;0.0485;0.0114;0.0017;1.22;350
6012;444;0.0485;0.0114;0.0017;1.22;350
6014;444;0.0485;0.0114;0.0017;1.22;350
6016;444;0.0485;0.0114;0.0017;1.22;350
6018;444;0.0485;0.0114;0.0017;1.22;350
6020;444;0.0485;0.0114;0.0017;1.22;350
6022;444;0.0485;0.0114;0.0017;1.22;350
6024;444;0.0485;0.0114;0.0017;1.22;350
6026;444;0.0485;0.0114;0.0017;1.22;350
6028;444;0.0485;0.0114;0.0017;1.22;350
6030;444;0.0485;0.0114;0.0017;1.22;350
6032;444;0.0485;0.0114;0.0017;1.22;350
6034;444;0.0485;0.0114;0.0017;1.21;350
6036;444;0.0485;0.0114;0.0017;1.21;350
6038;444;0.0485;0.0114;0.0017;1.22;350
6040;444;0.0485;0.0114;0.0017;1.22;350
6042;444;0.0485;0.0114;0.0017;1.22;350
6044;444;0.0485;0.0114;0.0017;1.22;350
6046;444;0.0485;0.0114;0.0017;1.22;350
6048;444;0.0485;0.0114;0.0017;1.22;350
6050;444;0.0485;0.0114;0.0017;1.22;350
6052;444;0.0485;0.0114;0.0017;1.22;350
6054;444;0.0485;0.0114;0.0017;1.22;350
6056;444;0.0485;0.0114;0.0017;1.22;350
6058;444;0.0485;0.0114;0.0017;1.22;350
6060;444;0.0485;0.0114;0.0017;1.22;350
6062;444;0.0485;0.0114;0.0017;1.22;350
6064;444;0.0485;0.0114;0.0017;1.22;350
6066;444;0.0485;0.0114;0.0017;1.22;350
6068;444;0.0485;0.0114;0.0017;1.22;350
6070;444;0.0485;0.0114;0.0017;1.22;350
6072;444;0.0485;0.0114;0.0017;1.22;350
6074;444;0.0485;0.0114;0.0017;1.22;350
6076;444;0.0485;0.0114;0.0017;1.22;350
6078;444;0.0485;0.0114;0.0017;1.22;350
6080;444;0.0485;0.0114;0.0017;1.22;350
6082;444;0.0485;0.0114;0.0017;1.22;350
6084;444;0.0485;0.0114;0.0017;1.22;350
6086;444;0.0485;0.0114;0.0017;1.22;350
6088;444;0.0485;0.0114;0.0017;1.22;350
6090;444;0.0485;0.0114;0.0017;1.22;350
6092;444;0.0485;0.0114;0.0017;1.22;350
6094;444;0.0485;0.0114;0.0017;1.22;350
6096;444;0.0485;0.0114;0.0017;1.22;350
6098;444;0.0485;0.0114;0.0017;1.22;350
6100;444;0.0485;0.0114;0.0017;1.22;350
6102;444;0.0485;0.0114;0.0017;1.22;350
6104;444;0.0485;0.0114;0.0017;1.22;350
6106;444;0.0485;0.0114;0.0017;1.22;350
6108;444;0.0485;0.0114;0.0017;1.22;350
6110;445;0.0485;0.0114;0.0017;1.22;350
6112;445;0.0485;0.0114;0.0017;1.22;350
6114;445;0.0485;0.0114;0.0017;1.22;350
6116;445;0.0485;0.0114;0.0017;1.22;350
6118;445;0.0485;0.0114;0.0017;1.21;350
6120;445;0.0485;0.0114;0.0017;1.22;350
6122;445;0.0485;0.0114;0.0017;1.22;350
6124;445;0.0485;0.0114;0.0017;1.22;350
6126;445;0.0485;0.0114;0.0017;1.22;350
6128;445;0.0485;0.0114;0.0017;1.22;350
6130;445;0.0485;0.0114;0.0017;1.22;350
6132;445;0.0485;0.0114;0.0017;1.22;350
6134;445;0.0485;0.0114;0.0017;1.22;350
6136;445;0.0485;0.0114;0.0017;1.22;350
6138;445;0.0485;0.0114;0.0017;1.22;350
6140;445;0.0485;0.0114;0.0017;1.22;350
6142;445;0.0485;0.0114;0.0017;1.22;350
6144;445;0.0485;0.0114;0.0017;1.22;350
6146;445;0.0485;0.0114;0.0017;1.22;350
6148;445;0.0485;0.0114;0.0017;1.22;350
6150;445;0.0485;0.0114;0.0017;1.22;350
6152;445;0.0485;0.0114;0.0017;1.22;350
6154;445;0.0485;0.0114;0.0017;1.22;350
6156;445;0.0485;0.0114;0.0017;1.22;350
6158;445;0.0485;0.0114;0.0017;1.22;350
6160;445;0.0485;0.0114;0.0017;1.22;350
6162;445;0.0485;0.0114;0.0017;1.22;350
6164;445;0.0485;0.0114;0.0017;1.22;350
6166;445;0.0485;0.0114;0.0017;1.22;350
6168;445;0.0485;0.0114;0.0017;1.22;350
6170;445;0.0485;0.0114;0.0017;1.22;350
6172;445;0.0485;0.0114;0.0017;1.22;350
6174;445;0.0485;0.0114;0.0017;1.22;350
6176;445;0.0485;0.0114;0.0017;1.22;350
6178;446;0.0485;0.0114;0.0017;1.22;350
6180;445;0.0485;0.0114;0.0017;1.22;350
6182;445;0.0485;0.0114;0.0017;1.22;350
6184;446;0.0485;0.0114;0.0017;1.22;350
6186;445;0.0485;0.0114;0.0017;1.22;350
6188;446;0.0485;0.0114;0.0017;1.22;350
6190;445;0.0485;0.0114;0.0017;1.22;350
6192;445;0.0485;0.0114;0.0017;1.22;350
6194;445;0.0485;0.0114;0.0017;1.22;350
6196;446;0.0485;0.0114;0.0017;1.22;350
6198;445;0.0485;0.0114;0.0017;1.22;350
6200;446;0.0485;0.0114;0.0017;1.22;350
6202;446;0.0485;0.0114;0.0017;1.22;350
6204;446;0.0485;0.0114;0.0017;1.22;350
6206;446;0.0485;0.0114;0.0017;1.22;350
6208;445;0.0485;0.0114;0.0017;1.22;350
6210;446;0.0485;0.0114;0.0017;1.22;350
6212;445;0.0485;0.0114;0.0017;1.22;350
6214;445;0.0485;0.0114;0.0017;1.22;350
6216;446;0.0485;0.0114;0.0017;1.22;350
6218;445;0.0485;0.0114;0.0017;1.22;350
6220;445;0.0485;0.0114;0.0017;1.22;350
6222;445;0.0485;0.0114;0.0017;1.22;350
6224;445;0.0485;0.0114;0.0017;1.22;350
6226;445;0.0485;0.0114;0.0017;1.22;350
6228;446;0.0485;0.0114;0.0017;1.22;350
6230;445;0.0485;0.0114;0.0017;1.22;350
6232;445;0.0485;0.0114;0.0017;1.22;350
6234;445;0.0485;0.0114;0.0017;1.22;350
6236;445;0.0485;0.0114;0.0017;1.22;350
6238;445;0.0485;0.0114;0.0017;1.22;350
6240;445;0.0485;0.0114;0.0017;1.22;350
6242;446;0.0485;0.0114;0.0017;1.22;350
6244;445;0.0485;0.0114;0.0017;1.22;350
6246;445;0.0485;0.0114;0.0017;1.22;350
6248;446;0.0485;0.0114;0.0017;1.22;350
6250;446;0.0485;0.0114;0.0017;1.22;350
6252;446;0.0485;0.0114;0.0017;1.22;350
6254;446;0.0485;0.0114;0.0017;1.22;350
6256;446;0.0485;0.0114;0.0017;1.22;350
6258;446;0.0485;0.0114;0.0017;1.22;350
6260;446;0.0485;0.0114;0.0017;1.22;350
6262;446;0.0485;0.0114;0.0017;1.22;350
6264;446;0.0485;0.0114;0.0017;1.22;350
6266;446;0.0485;0.0114;0.0017;1.22;350
6268;446;0.0485;0.0114;0.0017;1.22;350
6270;446;0.0485;0.0114;0.0017;1.22;350
6272;446;0.0485;0.0114;0.0017;1.22;350
6274;446;0.0485;0.0114;0.0017;1.22;350
6276;446;0.0485;0.0114;0.0017;1.22;350
6278;446;0.0485;0.0114;0.0017;1.22;350
6280;446;0.0485;0.0114;0.0017;1.22;350
6282;446;0.0485;0.0114;0.0017;1.22;350
6284;446;0.0485;0.0114;0.0017;1.22;350
6286;446;0.0485;0.0114;0.0017;1.22;350
6288;446;0.0485;0.0114;0.0017;1.21;350
6290;446;0.0485;0.0114;0.0017;1.22;350
6292;446;0.0485;0.0114;0.0017;1.22;350
6294;446;0.0485;0.0114;0.0017;1.22;350
6296;446;0.0485;0.0114;0.0017;1.22;350
6298;446;0.0485;0.0114;0.0017;1.22;350
6300;446;0.0485;0.0114;0.0017;1.22;350
6302;446;0.0485;0.0114;0.0017;1.21;350
6304;446;0.0485;0.0114;0.0017;1.22;350
6306;446;0.0485;0.0114;0.0017;1.22;350
6308;446;0.0485;0.0114;0.0017;1.22;350
6310;446;0.0485;0.0114;0.0017;1.22;350
6312;446;0.0485;0.0114;0.0017;1.22;350
6314;446;0.0485;0.0114;0.0017;1.22;350
6316;446;0.0485;0.0114;0.0017;1.22;350
6318;446;0.0485;0.0114;0.0017;1.22;350
6320;446;0.0485;0.0114;0.0017;1.22;350
6322;446;0.0485;0.0114;0.0017;1.22;350
6324;446;0.0485;0.0114;0.0017;1.22;350
6326;446;0.0485;0.0114;0.0017;1.22;350
6328;446;0.0485;0.0114;0.0017;1.22;350
6330;446;0.0485;0.0114;0.0017;1.21;350
6332;446;0.0485;0.0114;0.0017;1.22;350
6334;446;0.0485;0.0114;0.0017;1.22;350
6336;446;0.0485;0.0114;0.0017;1.22;350
6338;446;0.0485;0.0114;0.0017;1.22;350
6340;446;0.0485;0.0114;0.0017;1.22;350
6342;446;0.0485;0.0114;0.0017;1.22;350
6344;446;0.0485;0.0114;0.0017;1.21;350
6346;446;0.0485;0.0114;0.0017;1.22;350
6348;446;0.0485;0.0114;0.0017;1.22;350
6350;446;0.0485;0.0114;0.0017;1.21;350
6352;446;0.0485;0.0114;0.0017;1.21;350
6354;446;0.0485;0.0114;0.0017;1.21;350
6356;446;0.0485;0.0114;0.0017;1.22;350
6358;446;0.0485;0.0114;0.0017;1.21;350
6360;446;0.0485;0.0114;0.0017;1.22;350
6362;446;0.0485;0.0114;0.0017;1.22;350
6364;446;0.0485;0.0114;0.0017;1.21;350
6366;446;0.0485;0.0114;0.0017;1.22;350
6368;446;0.0485;0.0114;0.0017;1.22;350
6370;446;0.0485;0.0114;0.0017;1.22;350
6372;446;0.0485;0.0114;0.0017;1.22;350
6374;446;0.0485;0.0114;0.0017;1.22;350
6376;446;0.0485;0.0114;0.0017;1.22;350
6378;446;0.0485;0.0114;0.0017;1.22;350
6380;446;0.0485;0.0114;0.0017;1.22;350
6382;446;0.0485;0.0114;0.0017;1.21;350
6384;446;0.0485;0.0114;0.0017;1.22;350
6386;447;0.0485;0.0114;0.0017;1.22;350
6388;447;0.0485;0.0114;0.0017;1.22;350
6390;447;0.0485;0.0114;0.0017;1.22;350
6392;447;0.0485;0.0114;0.0017;1.22;350
6394;447;0.0485;0.0114;0.0017;1.22;350
6396;447;0.0485;0.0114;0.0017;1.22;350
6398;447;0.0485;0.0114;0.0017;1.21;350
6400;447;0.0485;0.0114;0.0017;1.22;350
6402;447;0.0485;0.0114;0.0017;1.22;350
6404;447;0.0485;0.0114;0.0017;1.21;350
6406;447;0.0485;0.0114;0.0017;1.22;350
6408;447;0.0485;0.0114;0.0017;1.21;350
6410;447;0.0485;0.0114;0.0017;1.22;350
6412;447;0.0485;0.0114;0.0017;1.21;350
6414;447;0.0485;0.0114;0.0017;1.22;350
6416;447;0.0485;0.0114;0.0017;1.21;350
6418;447;0.0485;0.0114;0.0017;1.22;350
6420;447;0.0485;0.0114;0.0017;1.21;350
6422;447;0.0485;0.0114;0.0017;1.22;350
6424;447;0.0485;0.0114;0.0017;1.22;350
6426;447;0.0485;0.0114;0.0017;1.22;350
6428;447;0.0485;0.0114;0.0017;1.22;350
6430;447;0.0485;0.0114;0.0017;1.22;350
6432;447;0.0485;0.0114;0.0017;1.21;350
6434;447;0.0485;0.0114;0.0017;1.21;350
6436;447;0.0485;0.0114;0.0017;1.21;350
6438;447;0.0485;0.0114;0.0017;1.21;350
6440;447;0.0485;0.0114;0.0017;1.22;350
6442;447;0.0485;0.0114;0.0017;1.22;350
6444;447;0.0485;0.0114;0.0017;1.22;350
6446;447;0.0485;0.0114;0.0017;1.21;350
6448;447;0.0485;0.0114;0.0017;1.22;350
6450;447;0.0485;0.0114;0.0017;1.21;350
6452;447;0.0485;0.0114;0.0017;1.21;350
6454;447;0.0485;0.0114;0.0017;1.22;350
6456;447;0.0485;0.0114;0.0017;1.22;350
6458;447;0.0485;0.0114;0.0017;1.22;350
6460;447;0.0485;0.0114;0.0017;1.21;350
6462;447;0.0485;0.0114;0.0017;1.22;350
6464;447;0.0485;0.0114;0.0017;1.22;350
6466;447;0.0485;0.0114;0.0017;1.22;350
6468;447;0.0485;0.0114;0.0017;1.22;350
6470;447;0.0485;0.0114;0.0017;1.22;350
6472;447;0.0485;0.0114;0.0017;1.22;350
6474;447;0.0485;0.0114;0.0017;1.21;350
6476;447;0.0485;0.0114;0.0017;1.22;350
6478;447;0.0485;0.0114;0.0017;1.22;350
6480;447;0.0485;0.0114;0.0017;1.22;350
6482;447;0.0485;0.0114;0.0017;1.22;350
6484;447;0.0485;0.0114;0.0017;1.22;350
6486;447;0.0485;0.0114;0.0017;1.22;350
6488;447;0.0485;0.0114;0.0017;1.22;350
6490;447;0.0485;0.0114;0.0017;1.22;350
6492;447;0.0485;0.0114;0.0017;1.22;350
6494;447;0.0485;0.0114;0.0017;1.22;350
6496;447;0.0485;0.0114;0.0017;1.22;350
6498;447;0.0485;0.0114;0.0017;1.22;350
6500;447;0.0485;0.0114;0.0017;1.22;350
6502;447;0.0485;0.0114;0.0017;1.22;350
6504;447;0.0485;0.0114;0.0017;1.22;350
6506;447;0.0485;0.0114;0.0017;1.22;350
6508;447;0.0485;0.0114;0.0017;1.22;350
6510;447;0.0485;0.0114;0.0017;1.22;350
6512;447;0.0485;0.0114;0.0017;1.22;350
6514;447;0.0485;0.0114;0.0017;1.22;350
6516;447;0.0485;0.0114;0.0017;1.21;350
6518;447;0.0485;0.0114;0.0017;1.22;350
6520;447;0.0485;0.0114;0.0017;1.22;350
6522;447;0.0485;0.0114;0.0017;1.22;350
6524;448;0.0485;0.0114;0.0017;1.21;350
6526;448;0.0485;0.0114;0.0017;1.22;350
6528;448;0.0485;0.0114;0.0017;1.22;350
6530;448;0.0485;0.0114;0.0017;1.21;350
6532;448;0.0485;0.0114;0.0017;1.22;350
6534;448;0.0485;0.0114;0.0017;1.22;350
6536;448;0.0485;0.0114;0.0017;1.22;350
6538;448;0.0485;0.0114;0.0017;1.21;350
6540;448;0.0485;0.0114;0.0017;1.22;350
6542;448;0.0485;0.0114;0.0017;1.21;350
6544;448;0.0485;0.0114;0.0017;1.22;350
6546;448;0.0485;0.0114;0.0017;1.22;350
6548;448;0.0485;0.0114;0.0017;1.22;350
6550;448;0.0485;0.0114;0.0017;1.22;350
6552;448;0.0485;0.0114;0.0017;1.21;350
6554;448;0.0485;0.0114;0.0017;1.22;350
6556;448;0.0485;0.0114;0.0017;1.21;350
6558;448;0.0485;0.0114;0.0017;1.22;350
6560;448;0.0485;0.0114;0.0017;1.21;350
6562;448;0.0485;0.0114;0.0017;1.21;350
6564;448;0.0485;0.0114;0.0017;1.21;350
6566;448;0.0485;0.0114;0.0017;1.21;350
6568;448;0.0485;0.0114;0.0017;1.21;350
6570;448;0.0485;0.0114;0.0017;1.21;350
6572;448;0.0485;0.0114;0.0017;1.21;350
6574;448;0.0485;0.0114;0.0017;1.22;350
6576;448;0.0485;0.0114;0.0017;1.21;350
6578;448;0.0485;0.0114;0.0017;1.22;350
6580;448;0.0485;0.0114;0.0017;1.21;350
6582;448;0.0485;0.0114;0.0017;1.22;350
6584;448;0.0485;0.0114;0.0017;1.22;350
6586;448;0.0485;0.0114;0.0017;1.22;350
6588;448;0.0485;0.0114;0.0017;1.22;350
6590;448;0.0485;0.0114;0.0017;1.21;350
6592;448;0.0485;0.0114;0.0017;1.22;350
